'Time and date','FP1-F7','F7-T7','T7-P7','P7-O1','FP1-F3','F3-C3','C3-P3','P3-O1','FP2-F4','F4-C4','C4-P4','P4-O2','FP2-F8','F8-T8','T8-P8','P8-O2','FZ-CZ','CZ-PZ','P7-T7','T7-FT9','FT9-FT10','FT10-T8','T8-P8'
'hh:mm:ss.mmm dd/mm/yyyy','uV','uV','uV','uV','uV','uV','uV','uV','uV','uV','uV','uV','uV','uV','uV','uV','uV','uV','uV','uV','uV','uV','uV'
'[02:13:34.000 07/11/2076]',-61.734,81.661,56.654,21.099,-176.215,69.158,116.435,87.521,-214.115,110.965,126.203,64.860,-22.271,136.752,-17.582,-7.424,104.713,132.454,-55.873,0.391,50.794,22.662,-17.582
'[02:13:34.004 07/11/2076]',-69.158,80.488,58.999,25.006,-186.374,70.330,119.951,89.866,-233.651,119.560,132.454,71.893,-36.728,139.487,-10.940,0.391,110.965,138.315,-58.217,-1.172,50.403,23.443,-10.940
'[02:13:34.008 07/11/2076]',-70.330,81.661,58.999,27.350,-191.844,72.674,123.468,92.210,-248.107,125.812,143.004,89.866,-40.244,131.673,-2.735,23.053,114.872,145.348,-58.217,0.391,42.589,16.020,-2.735
'[02:13:34.012 07/11/2076]',-64.469,78.535,64.078,29.304,-187.155,72.674,126.593,93.773,-208.645,123.468,146.911,75.800,-11.331,133.626,5.079,12.112,115.263,148.474,-63.297,3.516,34.774,14.066,5.079
'[02:13:34.016 07/11/2076]',-66.813,78.144,65.250,32.430,-188.718,70.720,128.547,96.899,-192.625,123.468,137.924,67.985,-5.079,139.487,10.159,-6.642,113.309,150.037,-64.469,2.735,28.523,14.457,10.159
'[02:13:34.020 07/11/2076]',-66.813,76.190,66.422,32.430,-194.579,73.846,128.156,99.243,-205.128,128.938,137.534,95.336,-12.894,132.454,17.973,20.317,116.044,150.427,-65.641,8.987,16.020,5.470,17.973
'[02:13:34.023 07/11/2076]',-68.767,73.846,66.032,30.085,-199.658,76.581,125.812,97.680,-200.049,130.891,144.957,108.230,-6.252,125.812,23.053,42.198,114.090,148.864,-65.250,14.847,2.735,-2.344,23.053
'[02:13:34.027 07/11/2076]',-75.800,75.800,60.171,25.397,-206.691,77.363,117.607,95.336,-203.956,133.626,135.971,87.521,-19.927,134.408,25.788,13.284,107.839,142.613,-59.389,8.987,-6.252,0.781,25.788
'[02:13:34.031 07/11/2076]',-74.237,75.018,56.264,19.927,-202.393,71.893,111.355,94.945,-227.790,138.315,119.170,77.363,-50.794,141.050,25.397,-7.424,98.462,138.315,-55.482,3.516,-14.847,7.424,25.397
'[02:13:34.035 07/11/2076]',-68.376,64.469,58.999,20.708,-198.486,64.469,110.183,98.071,-227.399,140.269,124.640,95.726,-43.370,128.938,27.741,21.099,93.382,139.487,-58.217,14.457,-22.271,-3.907,27.741
'[02:13:34.039 07/11/2076]',-60.952,57.045,58.999,24.615,-189.890,52.747,108.230,107.448,-221.538,140.659,122.295,116.825,-37.118,125.421,28.913,41.416,85.958,138.315,-58.217,17.973,-27.741,-7.033,28.913
'[02:13:34.043 07/11/2076]',-61.734,58.999,57.827,18.755,-185.201,46.105,103.541,108.230,-225.055,139.096,101.197,99.243,-58.999,134.799,28.132,10.159,78.144,128.938,-57.045,10.940,-35.556,1.172,28.132
'[02:13:34.047 07/11/2076]',-62.125,58.608,54.310,14.847,-184.811,41.416,97.680,109.792,-223.101,137.143,89.475,95.726,-65.641,133.236,29.304,2.344,73.846,119.170,-53.529,8.596,-45.714,0.391,29.304
'[02:13:34.051 07/11/2076]',-53.138,55.873,48.449,12.112,-178.168,41.807,89.475,109.011,-194.969,130.110,105.104,87.912,-37.900,114.090,36.337,15.238,70.330,110.574,-47.668,21.490,-64.860,-18.755,36.337
'[02:13:34.055 07/11/2076]',-45.714,53.138,46.105,5.861,-170.354,39.463,84.005,105.885,-186.374,126.984,110.183,83.223,-32.430,103.932,42.979,19.927,66.813,100.415,-45.324,27.350,-77.753,-28.913,42.979
'[02:13:34.059 07/11/2076]',-41.026,48.840,43.761,8.596,-165.275,34.383,77.363,111.746,-181.294,125.421,91.429,116.044,-28.913,91.429,46.496,42.589,63.687,94.554,-42.979,28.523,-90.647,-32.430,46.496
'[02:13:34.063 07/11/2076]',-35.946,45.714,43.370,10.940,-160.195,30.476,74.628,118.388,-179.341,126.593,79.316,129.719,-30.476,82.442,52.747,51.575,61.734,90.256,-42.589,27.741,-99.243,-36.337,52.747
'[02:13:34.066 07/11/2076]',-33.993,49.231,45.714,7.814,-155.116,28.132,76.972,117.607,-182.466,126.203,74.628,111.746,-45.714,80.098,60.562,35.165,63.687,85.568,-44.933,21.880,-102.759,-39.853,60.562
'[02:13:34.070 07/11/2076]',-30.085,51.184,48.840,5.861,-152.381,33.211,75.800,117.607,-175.433,122.686,71.111,120.733,-46.105,70.330,68.376,46.496,67.985,80.488,-48.059,18.364,-109.792,-43.761,68.376
'[02:13:34.074 07/11/2076]',-22.271,48.840,53.919,5.470,-148.083,39.072,74.628,119.170,-166.838,118.388,76.190,138.315,-39.463,57.436,75.018,73.065,73.455,73.846,-53.138,21.099,-116.825,-53.529,75.018
'[02:13:34.078 07/11/2076]',-17.192,49.231,56.654,2.735,-143.004,42.198,73.455,117.998,-164.103,116.825,76.972,119.951,-44.933,53.529,82.442,58.217,76.190,65.641,-55.873,20.317,-121.905,-57.827,82.442
'[02:13:34.082 07/11/2076]',-12.112,56.264,56.264,1.954,-137.924,45.324,73.455,119.951,-155.507,117.216,65.641,106.667,-49.231,58.217,87.912,36.337,79.707,62.906,-55.482,11.331,-126.203,-53.529,87.912
'[02:13:34.086 07/11/2076]',-1.172,58.217,57.436,5.079,-132.454,50.794,76.190,124.640,-151.990,118.779,68.767,134.408,-41.807,47.668,96.117,67.985,89.475,64.860,-56.654,14.066,-135.971,-58.217,96.117
'[02:13:34.090 07/11/2076]',8.987,58.608,58.608,10.159,-128.938,53.919,80.098,130.891,-153.553,118.388,77.753,154.725,-39.072,35.556,104.713,96.117,96.508,66.813,-57.827,18.364,-143.004,-65.641,104.713
'[02:13:34.094 07/11/2076]',12.112,66.422,57.827,11.722,-126.984,55.873,83.614,135.189,-130.110,112.918,67.985,136.752,-32.039,42.198,109.402,67.985,97.680,66.422,-57.045,5.079,-138.315,-57.045,109.402
'[02:13:34.098 07/11/2076]',14.847,66.813,62.515,14.066,-127.375,58.608,86.740,139.878,-110.574,109.402,55.873,131.282,-25.006,49.621,111.746,49.231,99.243,67.204,-61.734,-0.391,-130.501,-48.840,111.746
'[02:13:34.102 07/11/2076]',21.880,53.529,70.330,25.006,-126.203,57.045,94.554,145.348,-110.965,108.620,78.144,158.632,-10.940,34.774,118.779,91.429,106.667,73.846,-69.548,13.675,-121.123,-61.343,118.779
'[02:13:34.105 07/11/2076]',27.350,50.403,73.455,26.960,-117.216,57.827,96.899,140.659,-94.945,107.839,80.879,146.520,-0.781,38.291,123.858,78.535,107.057,78.144,-72.674,13.675,-112.137,-57.436,123.858
'[02:13:34.109 07/11/2076]',27.741,53.138,73.846,26.960,-110.183,60.562,94.164,136.752,-81.270,108.620,64.469,138.315,-4.298,55.092,124.249,55.482,105.495,79.316,-73.065,5.470,-106.667,-38.291,124.249
'[02:13:34.113 07/11/2076]',34.383,50.794,70.720,32.821,-96.899,60.952,91.038,134.408,-71.111,105.495,60.171,140.659,-3.516,55.873,127.766,55.092,100.806,84.005,-69.939,7.424,-113.700,-28.523,127.766
'[02:13:34.117 07/11/2076]',41.807,50.403,70.720,33.993,-82.442,60.171,90.256,129.719,-56.654,101.587,77.363,115.653,3.516,52.747,131.673,50.012,93.382,90.647,-69.939,12.894,-112.527,-32.821,131.673
'[02:13:34.121 07/11/2076]',44.542,49.231,72.283,35.946,-72.283,56.654,89.866,128.156,-46.105,95.336,86.740,109.402,8.205,52.747,130.501,53.138,82.833,95.336,-71.502,14.847,-109.011,-31.258,130.501
'[02:13:34.125 07/11/2076]',47.668,43.370,71.502,48.840,-62.515,51.575,87.521,135.189,-40.244,89.866,80.098,141.441,13.284,49.231,125.031,82.833,75.409,101.587,-70.720,18.755,-107.057,-26.569,125.031
'[02:13:34.129 07/11/2076]',49.231,37.509,71.893,56.264,-53.529,46.105,85.958,136.752,-34.774,85.177,77.363,142.222,18.755,48.840,116.435,85.958,70.330,106.276,-71.111,21.880,-98.462,-25.006,116.435
'[02:13:34.133 07/11/2076]',44.542,36.728,70.330,58.999,-46.105,39.072,83.223,135.971,-27.350,77.753,72.674,122.686,16.801,55.873,105.104,67.204,64.078,109.402,-69.548,19.145,-88.694,-18.755,105.104
'[02:13:34.137 07/11/2076]',44.542,32.039,66.813,64.860,-38.681,31.258,78.926,137.143,-23.834,71.502,69.158,139.878,21.880,52.747,93.382,88.303,59.780,111.746,-66.032,21.099,-83.614,-17.973,93.382
'[02:13:34.141 07/11/2076]',43.761,24.615,64.078,69.939,-32.430,23.443,74.628,138.315,-22.271,62.515,76.581,153.944,30.085,41.807,84.005,114.481,52.357,115.653,-63.297,26.178,-76.581,-25.788,84.005
'[02:13:34.145 07/11/2076]',41.026,24.225,62.125,68.376,-26.569,16.801,71.893,134.799,-21.880,58.999,78.144,130.110,27.350,43.761,77.363,94.945,42.979,119.560,-61.343,23.053,-69.939,-26.960,77.363
'[02:13:34.148 07/11/2076]',41.026,25.788,60.171,69.939,-21.490,17.582,69.158,132.845,-18.364,58.217,71.893,121.905,25.788,49.231,73.846,84.005,36.337,125.031,-59.389,19.536,-70.330,-23.053,73.846
'[02:13:34.152 07/11/2076]',48.449,23.443,60.171,76.972,-15.629,21.099,69.939,134.408,-20.317,62.906,80.879,151.990,36.728,41.807,76.581,119.170,38.681,132.845,-59.389,25.788,-75.409,-28.913,76.581
'[02:13:34.156 07/11/2076]',53.138,24.225,62.515,79.707,-13.675,27.350,71.502,135.189,-21.880,70.330,94.164,166.838,44.542,50.403,80.098,133.626,40.635,141.441,-61.734,28.913,-74.628,-29.695,80.098
'[02:13:34.160 07/11/2076]',53.529,30.867,60.171,78.535,-12.894,33.993,69.158,132.845,-20.317,80.098,83.223,148.474,35.165,79.707,80.098,96.117,41.807,139.487,-59.389,15.238,-72.674,-10.159,80.098
'[02:13:34.164 07/11/2076]',51.575,35.556,55.092,76.972,-11.331,36.337,66.032,129.328,-19.145,92.210,72.674,130.501,26.178,104.713,82.051,62.125,44.933,137.924,-54.310,-0.781,-66.813,4.298,82.051
'[02:13:34.168 07/11/2076]',58.999,39.463,51.575,67.985,-5.079,42.589,65.250,117.216,-19.145,105.104,85.568,136.752,32.430,106.276,88.303,79.316,55.873,139.096,-50.794,-1.563,-72.674,0.391,88.303
'[02:13:34.172 07/11/2076]',68.767,45.714,47.668,55.092,4.689,53.529,59.780,99.243,-11.331,118.388,90.647,123.468,33.211,109.011,97.680,79.707,63.297,136.361,-46.886,-4.298,-89.084,1.954,97.680
'[02:13:34.176 07/11/2076]',75.018,47.277,43.761,49.621,14.847,62.515,48.840,89.866,-1.172,129.719,64.469,126.593,22.662,112.527,105.104,78.144,68.376,126.203,-42.979,-9.377,-116.435,15.629,105.104
'[02:13:34.180 07/11/2076]',81.661,48.059,42.198,44.542,23.834,69.939,40.635,82.442,8.596,139.878,48.449,124.640,15.629,108.620,118.388,78.926,77.363,116.435,-41.416,-10.159,-141.832,20.317,118.388
'[02:13:34.184 07/11/2076]',84.005,48.059,44.542,37.900,27.741,75.800,40.244,71.111,18.364,147.692,53.138,90.647,6.252,101.978,134.408,67.985,83.223,107.839,-43.761,-8.987,-160.977,16.410,134.408
'[02:13:34.188 07/11/2076]',84.786,46.105,48.059,33.993,30.085,82.442,40.244,60.562,30.085,155.897,50.403,73.065,-1.172,97.680,147.692,66.422,88.303,99.634,-47.277,-11.331,-173.871,16.801,147.692
'[02:13:34.191 07/11/2076]',86.740,46.105,47.668,33.602,33.602,87.912,39.072,53.529,44.151,162.540,41.807,84.005,-1.563,89.084,161.368,84.786,91.819,96.117,-46.886,-16.020,-181.685,16.801,161.368
'[02:13:34.195 07/11/2076]',87.131,48.059,47.277,30.085,37.509,93.382,39.463,42.589,59.780,169.573,35.556,66.813,-2.344,86.740,168.010,79.707,93.773,94.554,-46.496,-21.099,-181.685,17.582,168.010
'[02:13:34.199 07/11/2076]',87.131,50.403,44.933,26.569,39.853,99.243,37.900,31.648,76.581,175.433,17.973,41.416,-5.861,93.773,166.056,57.827,91.038,91.038,-44.151,-30.085,-176.996,26.569,166.056
'[02:13:34.203 07/11/2076]',89.084,49.621,43.370,26.569,42.589,102.759,34.383,28.523,91.819,178.950,5.079,53.138,1.563,92.210,161.368,74.237,91.038,86.349,-42.589,-32.039,-169.963,31.258,161.368
'[02:13:34.207 07/11/2076]',90.647,49.621,44.933,24.615,44.151,107.839,34.383,23.053,104.322,178.559,7.424,58.999,12.894,89.084,153.162,94.164,93.382,82.833,-44.151,-30.867,-159.414,30.085,153.162
'[02:13:34.211 07/11/2076]',89.475,51.575,45.714,16.020,45.714,113.309,31.648,11.722,117.607,176.606,-0.781,21.880,16.801,94.164,141.832,60.952,89.866,73.065,-44.933,-33.993,-143.394,33.602,141.832
'[02:13:34.215 07/11/2076]',84.396,55.092,42.198,11.722,45.714,115.653,24.615,8.596,131.282,170.354,-19.536,-1.563,20.708,98.462,131.673,29.304,84.396,64.078,-41.416,-41.416,-128.547,40.635,131.673
'[02:13:34.219 07/11/2076]',86.349,53.919,41.807,12.503,45.714,116.825,24.615,7.814,133.236,163.321,-13.284,16.020,33.993,81.270,127.375,55.873,85.568,62.515,-41.026,-34.774,-116.825,27.741,127.375
'[02:13:34.223 07/11/2076]',86.349,52.747,38.291,10.940,44.542,117.998,21.880,5.861,134.017,156.288,-8.987,19.145,45.324,66.422,122.295,66.032,82.442,59.389,-37.509,-30.867,-102.759,16.410,122.295
'[02:13:34.227 07/11/2076]',78.926,54.310,33.211,11.331,39.463,113.309,14.847,9.768,135.580,148.083,-37.900,-0.391,40.244,71.502,110.574,21.880,72.283,48.840,-32.430,-43.370,-83.614,26.178,110.574
'[02:13:34.230 07/11/2076]',75.409,54.701,33.602,8.596,39.853,108.620,14.066,10.159,134.408,140.269,-41.416,-0.391,44.151,66.813,102.759,17.582,71.111,43.761,-32.821,-44.933,-71.502,23.834,102.759
'[02:13:34.234 07/11/2076]',80.879,51.966,32.039,1.954,43.370,109.011,12.503,1.954,128.938,130.501,-17.192,-2.735,58.608,45.714,97.680,36.337,68.376,40.635,-31.258,-30.867,-66.422,1.172,97.680
'[02:13:34.238 07/11/2076]',84.786,51.575,25.788,-2.735,49.621,110.965,1.954,-3.516,128.938,113.700,-8.205,-1.172,67.595,29.304,91.038,43.761,60.171,29.695,-25.006,-24.615,-66.813,-10.159,91.038
'[02:13:34.242 07/11/2076]',84.005,53.529,16.020,-4.298,52.357,110.965,-9.377,-2.735,126.203,98.852,-21.880,22.662,71.111,21.880,81.270,50.794,53.529,16.801,-15.238,-26.569,-64.860,-10.549,81.270
'[02:13:34.246 07/11/2076]',84.005,53.138,5.079,-6.642,53.919,107.448,-19.927,-5.079,121.905,85.958,-32.821,32.430,74.237,14.847,69.548,47.668,50.403,2.344,-4.298,-28.523,-57.827,-15.629,69.548
'[02:13:34.250 07/11/2076]',80.488,50.403,0.391,-9.768,54.310,104.713,-28.523,-7.424,117.607,76.190,-30.085,7.033,79.707,8.987,59.780,21.880,48.840,-9.377,0.391,-25.006,-46.105,-21.880,59.780
'[02:13:34.254 07/11/2076]',77.363,45.324,1.172,-13.284,55.482,99.243,-31.648,-10.940,113.309,70.720,-31.648,5.861,87.521,3.126,48.449,18.755,49.621,-21.099,-0.391,-20.708,-34.383,-26.960,48.449
'[02:13:34.258 07/11/2076]',76.190,37.509,0.781,-15.238,55.092,92.601,-36.337,-10.549,108.620,64.078,-33.993,22.271,98.071,-9.377,37.118,35.556,46.105,-29.304,0.000,-10.940,-30.476,-37.118,37.118
'[02:13:34.262 07/11/2076]',73.065,33.211,-2.735,-17.973,51.575,86.740,-41.416,-11.331,103.932,56.654,-38.291,9.377,101.587,-17.582,24.225,23.443,35.946,-36.337,3.516,-6.252,-27.741,-43.370,24.225
'[02:13:34.266 07/11/2076]',67.985,34.774,-12.503,-21.880,48.840,78.926,-45.714,-13.284,101.587,50.012,-54.701,-1.563,101.587,-19.145,9.768,3.516,27.741,-44.542,13.284,-11.722,-23.834,-42.198,9.768
'[02:13:34.270 07/11/2076]',67.204,29.695,-18.364,-24.615,46.496,75.800,-50.012,-19.145,98.071,45.714,-60.952,16.410,106.276,-29.304,-3.126,25.788,28.913,-53.529,19.145,-7.424,-26.960,-47.277,-3.126
'[02:13:34.273 07/11/2076]',68.767,20.317,-18.755,-25.397,47.277,76.190,-53.138,-26.569,96.508,45.714,-58.608,21.099,112.527,-41.026,-11.331,45.714,34.383,-60.171,19.536,0.781,-29.304,-52.747,-11.331
'[02:13:34.277 07/11/2076]',64.469,16.020,-17.582,-26.569,47.668,78.535,-54.701,-34.383,97.680,46.496,-68.767,-4.689,106.276,-34.774,-18.364,18.755,41.807,-71.111,18.364,-0.391,-26.569,-44.151,-18.364
'[02:13:34.281 07/11/2076]',59.389,14.457,-17.192,-26.569,46.886,76.972,-55.092,-38.681,99.634,49.231,-81.270,-19.927,96.117,-24.615,-19.536,-2.735,48.059,-77.363,17.973,-6.252,-24.225,-32.821,-19.536
'[02:13:34.285 07/11/2076]',61.734,8.987,-15.238,-21.880,46.886,75.409,-50.403,-37.900,94.945,53.138,-69.158,3.126,100.415,-30.476,-13.284,26.569,55.482,-71.893,16.020,0.391,-25.788,-36.728,-13.284
'[02:13:34.289 07/11/2076]',58.217,7.424,-15.238,-15.238,40.244,69.939,-44.933,-30.085,88.303,51.966,-65.250,28.132,97.680,-26.569,-9.377,42.589,55.092,-64.860,16.020,-2.735,-20.708,-33.211,-9.377
'[02:13:34.293 07/11/2076]',51.575,13.284,-15.629,-23.834,35.946,67.595,-43.370,-35.165,86.740,51.966,-74.237,5.470,83.223,-6.642,-7.814,2.735,48.449,-58.217,16.410,-14.066,-18.364,-17.192,-7.814
'[02:13:34.297 07/11/2076]',48.059,16.020,-10.940,-31.258,33.602,67.985,-40.635,-38.681,82.442,52.747,-76.972,-5.079,73.455,4.689,-5.861,-18.755,41.807,-46.496,11.722,-17.192,-21.490,-6.642,-5.861
'[02:13:34.301 07/11/2076]',53.138,14.066,-7.424,-35.556,33.211,70.720,-36.728,-42.198,74.237,51.575,-50.403,-11.331,77.363,-2.735,-2.735,-7.033,35.946,-30.085,8.205,-3.126,-31.648,-16.801,-2.735
'[02:13:34.305 07/11/2076]',53.919,15.238,-3.516,-42.198,32.039,67.985,-30.476,-44.933,69.939,51.575,-35.165,-22.662,75.800,0.391,-1.563,-10.159,27.741,-17.582,4.298,0.391,-34.774,-17.192,-1.563
'[02:13:34.309 07/11/2076]',50.794,13.675,-2.344,-38.681,28.132,59.780,-26.960,-36.728,63.687,53.138,-42.979,4.689,70.720,7.814,-2.344,1.954,19.927,-6.642,3.126,0.000,-39.072,-5.079,-2.344
'[02:13:34.313 07/11/2076]',47.277,11.722,0.781,-33.211,23.834,49.621,-20.708,-25.788,56.264,56.654,-46.886,19.927,66.032,15.629,0.391,5.079,14.066,5.470,0.000,0.781,-37.900,3.516,0.391
'[02:13:34.316 07/11/2076]',41.807,13.675,5.470,-33.993,19.145,41.416,-12.894,-20.708,55.873,61.343,-40.635,0.391,58.217,30.085,3.907,-16.020,8.987,14.066,-4.689,-2.344,-33.602,12.503,3.907
'[02:13:34.320 07/11/2076]',37.118,17.582,8.596,-32.821,15.238,36.728,-5.861,-15.238,53.138,64.860,-35.946,6.252,55.482,38.681,9.377,-15.238,5.470,23.053,-7.814,-5.470,-30.867,22.271,9.377
'[02:13:34.324 07/11/2076]',38.291,18.755,14.847,-28.132,13.284,35.946,1.563,-7.424,46.496,68.376,-25.006,26.178,57.436,41.026,16.410,1.172,1.954,35.556,-14.066,-1.954,-29.304,24.225,16.410
'[02:13:34.328 07/11/2076]',36.728,25.397,16.410,-26.569,10.940,34.383,9.377,-2.344,43.761,70.720,-17.192,12.503,57.045,50.012,19.536,-16.020,0.391,43.761,-15.629,-5.470,-23.834,29.695,19.536
'[02:13:34.332 07/11/2076]',31.648,30.085,21.099,-24.225,7.424,30.867,15.629,3.126,42.589,71.502,-24.225,-1.563,51.966,64.469,16.020,-43.370,-2.344,50.794,-20.317,-10.940,-14.847,41.416,16.020
'[02:13:34.336 07/11/2076]',31.648,26.178,29.695,-17.582,4.689,29.695,21.490,12.112,38.681,72.674,-17.973,30.085,58.999,61.343,14.457,-10.940,1.563,58.608,-28.913,-1.563,-13.675,41.416,14.457
'[02:13:34.340 07/11/2076]',32.821,21.880,35.946,-10.940,5.861,28.132,23.834,20.317,35.946,70.720,-7.424,51.966,67.595,51.966,10.159,22.662,6.642,59.780,-35.165,6.252,-12.503,37.118,10.159
'[02:13:34.344 07/11/2076]',28.913,23.834,37.118,-8.596,4.298,24.225,25.788,25.788,36.728,63.687,-14.457,37.509,60.171,56.264,3.126,4.689,4.689,57.827,-36.337,-1.172,-8.205,42.979,3.126
'[02:13:34.348 07/11/2076]',24.225,28.523,35.946,-3.516,1.954,18.755,28.523,34.774,34.383,54.310,-23.053,41.026,52.747,56.654,-1.954,0.391,4.689,57.436,-35.165,-10.940,-6.642,47.277,-1.954
'[02:13:34.352 07/11/2076]',26.178,26.960,35.165,5.861,-3.516,11.331,37.118,49.231,23.834,43.761,-2.344,77.363,61.343,32.821,-1.563,51.184,7.033,62.515,-34.383,-5.861,-4.689,26.569,-1.563
'[02:13:34.355 07/11/2076]',22.662,29.304,32.821,8.596,-12.503,7.814,41.026,57.436,19.145,30.476,3.907,80.098,59.389,25.006,-4.298,55.482,1.172,67.204,-32.039,-7.814,-3.126,19.145,-4.298
'[02:13:34.359 07/11/2076]',13.675,33.211,29.304,11.331,-21.880,3.516,38.291,67.985,17.973,19.145,-12.503,82.833,48.059,29.695,-12.503,42.589,-8.596,67.595,-28.523,-13.675,-5.079,25.788,-12.503
'[02:13:34.363 07/11/2076]',10.549,32.039,21.490,15.238,-27.741,0.781,30.867,77.363,16.801,6.642,-21.880,88.694,44.933,22.662,-22.271,45.714,-19.927,65.250,-20.708,-12.503,-10.940,25.006,-22.271
'[02:13:34.367 07/11/2076]',9.377,32.430,16.020,13.675,-31.258,-0.391,26.178,79.316,11.331,-0.781,-7.814,70.720,46.496,11.722,-30.085,44.933,-26.178,63.687,-15.238,-6.252,-9.377,9.377,-30.085
'[02:13:34.371 07/11/2076]',8.596,32.821,7.814,12.112,-32.430,-5.470,21.099,80.488,7.814,-7.033,-3.907,62.515,45.714,7.814,-40.635,45.324,-31.648,57.436,-7.033,-5.470,-7.814,4.689,-40.635
'[02:13:34.375 07/11/2076]',7.424,30.867,-1.563,17.192,-33.993,-10.549,15.629,84.396,2.344,-12.112,-13.284,88.694,47.277,3.126,-49.621,64.469,-34.383,51.184,2.344,-6.642,-5.470,5.470,-49.621
'[02:13:34.379 07/11/2076]',5.861,27.741,-5.470,17.973,-34.774,-14.457,12.503,83.614,-3.126,-12.894,-14.847,87.131,45.324,2.344,-50.012,57.827,-34.383,47.668,6.252,-4.689,0.000,3.907,-50.012
'[02:13:34.383 07/11/2076]',0.781,24.225,-8.596,17.973,-34.774,-18.364,9.377,78.535,-4.689,-12.112,-16.020,63.687,35.556,12.503,-50.794,32.039,-36.337,45.714,9.377,-5.470,4.689,11.722,-50.794
'[02:13:34.387 07/11/2076]',-1.563,17.582,-10.549,22.662,-32.039,-22.271,7.033,75.800,-3.126,-10.549,-17.192,72.674,34.383,13.284,-47.668,41.026,-35.165,41.807,11.331,-2.735,8.205,16.410,-47.668
'[02:13:34.391 07/11/2076]',-2.735,12.894,-13.675,27.741,-29.695,-24.225,6.642,72.283,-1.172,-8.987,-10.940,78.926,36.337,9.377,-44.151,55.092,-35.165,38.681,14.457,0.781,13.284,14.847,-44.151
'[02:13:34.395 07/11/2076]',-6.642,13.675,-17.973,26.569,-25.397,-25.006,3.907,63.297,3.126,-8.596,-12.894,48.059,29.304,17.192,-43.370,26.178,-36.337,32.430,18.755,-2.735,20.708,19.927,-43.370
'[02:13:34.398 07/11/2076]',-11.722,16.020,-23.053,27.741,-19.927,-26.569,1.172,55.873,12.894,-11.722,-23.834,27.350,23.443,24.225,-43.370,0.781,-41.026,25.788,23.834,-7.814,26.569,29.695,-43.370
'[02:13:34.402 07/11/2076]',-12.503,10.159,-24.225,32.821,-17.582,-27.350,0.391,51.184,17.582,-16.410,-19.145,46.105,28.132,14.847,-42.589,28.132,-43.761,25.397,25.006,0.391,30.085,25.397,-42.589
'[02:13:34.406 07/11/2076]',-15.629,5.861,-23.053,35.556,-15.238,-26.178,1.172,44.542,23.053,-23.443,-8.987,50.403,30.476,7.424,-38.291,42.589,-46.496,26.569,23.834,3.516,38.291,23.053,-38.291
'[02:13:34.410 07/11/2076]',-22.271,2.735,-20.317,37.900,-13.284,-27.741,2.735,36.728,33.211,-28.913,-19.145,21.099,18.364,17.973,-36.728,5.861,-53.138,23.834,21.099,-3.126,49.621,36.337,-36.728
'[02:13:34.414 07/11/2076]',-29.695,0.391,-21.490,45.714,-14.847,-33.211,8.596,35.556,43.761,-33.602,-31.258,0.000,10.159,26.178,-33.602,-23.834,-59.389,25.788,22.271,-14.847,66.032,46.496,-33.602
'[02:13:34.418 07/11/2076]',-26.960,-3.126,-17.192,46.105,-12.112,-32.430,16.801,26.569,50.012,-36.337,-11.331,6.252,17.973,16.020,-24.615,-1.172,-58.217,35.556,17.973,-6.252,70.330,38.681,-24.615
'[02:13:34.422 07/11/2076]',-23.053,-2.735,-15.629,46.105,-3.126,-28.913,19.536,16.801,62.906,-41.026,2.344,0.391,25.006,14.066,-16.410,2.735,-62.515,44.151,16.410,-1.563,69.158,39.463,-16.410
'[02:13:34.426 07/11/2076]',-22.662,-3.516,-16.801,52.357,1.954,-26.569,17.192,14.847,77.753,-46.886,-10.940,14.066,24.615,21.099,-14.847,2.344,-71.502,49.231,17.582,-1.563,63.297,53.919,-14.847
'[02:13:34.430 07/11/2076]',-22.271,-5.470,-14.847,56.654,8.205,-23.053,18.364,9.768,88.694,-52.357,-11.722,23.443,28.913,25.397,-12.894,7.033,-73.455,58.999,15.629,0.391,61.343,62.906,-12.894
'[02:13:34.434 07/11/2076]',-20.317,-7.033,-9.377,57.827,13.284,-17.192,24.225,0.391,94.945,-54.701,10.549,0.781,34.774,25.788,-8.987,0.000,-71.893,68.376,10.159,5.079,66.032,60.171,-8.987
'[02:13:34.438 07/11/2076]',-17.192,-8.205,-4.689,61.343,15.629,-11.331,31.648,-4.298,98.852,-56.264,23.053,-1.563,42.198,26.569,-6.252,0.391,-69.939,78.144,5.470,6.642,70.330,58.217,-6.252
'[02:13:34.441 07/11/2076]',-13.284,-9.768,0.391,66.422,16.801,-7.033,37.900,-3.126,94.554,-53.529,26.569,23.053,50.794,24.615,-5.470,20.317,-65.641,89.084,0.391,6.642,74.237,54.701,-5.470
'[02:13:34.445 07/11/2076]',-8.205,-6.642,5.079,68.767,18.755,-1.954,44.542,-3.516,89.475,-47.668,35.556,23.053,55.873,26.178,-1.563,19.927,-59.389,98.462,-4.298,6.252,72.283,50.403,-1.563
'[02:13:34.449 07/11/2076]',-4.298,-2.735,7.033,72.283,22.662,0.391,50.794,-1.954,84.396,-38.681,33.993,14.066,54.701,34.774,1.563,3.126,-54.701,104.322,-6.252,5.470,64.078,51.184,1.563
'[02:13:34.453 07/11/2076]',1.563,-2.735,12.112,78.535,26.569,3.516,58.608,1.172,77.753,-27.350,38.291,41.026,59.780,35.556,6.642,26.960,-41.026,106.667,-11.331,10.940,51.575,47.277,6.642
'[02:13:34.457 07/11/2076]',11.722,-5.079,17.582,84.786,30.476,8.987,66.813,1.172,69.939,-13.284,57.827,62.515,68.376,35.165,15.238,57.827,-24.615,111.355,-16.801,19.536,39.463,41.026,15.238
'[02:13:34.461 07/11/2076]',21.490,-1.954,22.271,80.879,37.509,16.410,74.628,-5.079,62.906,2.735,66.422,42.979,67.204,46.105,23.443,37.118,-12.112,116.435,-21.490,17.192,31.648,41.026,23.443
'[02:13:34.465 07/11/2076]',31.648,1.563,25.006,80.488,44.151,22.271,78.144,-5.470,54.310,19.145,65.250,31.258,60.952,62.515,30.867,14.847,2.344,120.342,-24.225,1.563,29.304,46.496,30.867
'[02:13:34.469 07/11/2076]',46.105,0.391,27.741,80.488,50.794,27.350,82.442,-5.079,41.807,35.946,79.707,62.515,68.767,58.608,40.635,52.357,19.536,128.938,-26.960,-9.377,29.695,35.556,40.635
'[02:13:34.473 07/11/2076]',55.873,0.000,30.867,76.190,55.873,28.913,85.568,-7.033,28.132,52.357,89.475,72.283,69.158,57.436,47.277,67.985,33.602,130.110,-30.085,-27.741,33.993,26.960,47.277
'[02:13:34.477 07/11/2076]',55.482,4.298,32.821,71.502,59.780,24.615,84.786,-4.689,21.880,64.469,60.562,51.575,48.840,78.926,47.277,23.834,41.807,116.825,-32.039,-62.515,41.026,42.198,47.277
'[02:13:34.480 07/11/2076]',61.734,7.033,39.463,63.297,65.641,24.615,87.912,-5.861,18.364,74.628,58.217,54.701,45.714,83.223,48.449,27.741,51.966,113.309,-38.681,-73.455,34.774,42.198,48.449
'[02:13:34.484 07/11/2076]',72.674,5.861,50.403,54.310,70.720,26.178,94.554,-7.424,9.768,83.614,82.051,57.436,51.966,74.237,54.701,52.357,62.515,116.044,-49.621,-60.952,17.582,27.350,54.701
'[02:13:34.488 07/11/2076]',88.303,8.987,58.217,44.542,81.661,33.993,94.945,-8.987,8.987,87.912,95.336,58.608,55.482,71.111,60.562,62.515,69.939,118.779,-57.436,-46.105,-11.331,20.317,60.562
'[02:13:34.492 07/11/2076]',96.899,10.940,62.906,42.198,86.349,39.463,89.475,-1.172,7.814,91.038,82.833,85.177,53.138,75.800,62.125,76.190,73.065,118.388,-62.125,-36.337,-42.198,25.788,62.125
'[02:13:34.496 07/11/2076]',101.978,10.940,67.204,37.900,87.131,41.416,85.177,4.689,8.205,90.647,74.237,96.508,50.012,76.190,63.297,80.488,76.190,115.263,-66.422,-27.350,-67.595,24.615,63.297
'[02:13:34.500 07/11/2076]',103.150,13.675,71.111,29.695,88.694,42.589,81.270,4.689,7.814,88.303,76.581,74.628,41.026,76.190,66.422,64.078,78.144,105.495,-70.330,-23.053,-87.131,18.364,66.422
'[02:13:34.504 07/11/2076]',102.759,14.847,76.190,19.145,87.912,42.589,79.707,3.126,9.768,84.396,78.535,73.455,34.383,75.018,69.548,66.813,80.098,95.336,-75.409,-22.271,-101.978,15.238,69.548
'[02:13:34.508 07/11/2076]',104.322,12.112,79.316,13.284,84.005,43.370,78.144,3.907,8.596,78.535,80.098,90.256,32.821,66.032,73.455,84.786,81.270,91.819,-78.535,-20.317,-113.309,7.424,73.455
'[02:13:34.512 07/11/2076]',103.932,12.503,82.051,3.907,80.098,45.324,75.800,1.172,7.033,72.674,81.661,80.098,27.350,62.906,80.098,70.720,79.316,90.256,-81.270,-21.880,-119.170,2.735,80.098
'[02:13:34.516 07/11/2076]',100.415,12.503,84.786,-1.172,74.628,46.105,75.409,0.391,7.033,67.985,72.283,65.250,17.582,64.860,84.005,46.105,77.753,88.694,-84.005,-29.304,-119.951,4.689,84.005
'[02:13:34.520 07/11/2076]',99.634,8.205,87.131,-2.735,67.985,48.449,74.237,1.172,6.642,63.687,69.548,85.177,19.145,55.482,85.568,64.469,75.018,91.038,-86.349,-26.178,-124.640,0.391,85.568
'[02:13:34.523 07/11/2076]',99.243,3.126,89.475,-7.814,63.297,49.621,71.111,-1.563,5.079,55.092,75.018,94.945,21.099,42.589,83.614,83.614,68.376,90.647,-88.694,-19.927,-128.156,-7.424,83.614
'[02:13:34.527 07/11/2076]',91.038,1.172,89.475,-16.020,58.217,48.449,66.813,-7.424,5.079,48.840,62.906,67.204,8.987,42.198,77.363,55.482,57.436,83.223,-88.694,-21.880,-127.766,-6.252,77.363
'[02:13:34.531 07/11/2076]',84.396,-0.391,89.084,-23.053,52.747,45.324,63.687,-12.503,8.205,40.244,46.496,53.919,-0.781,42.198,69.548,37.900,48.840,80.098,-88.303,-26.178,-126.984,-2.344,69.548
'[02:13:34.535 07/11/2076]',84.396,-8.205,87.912,-25.397,49.621,40.635,62.515,-14.847,4.689,31.648,51.184,73.455,3.516,23.443,64.078,70.330,44.151,80.098,-87.131,-16.020,-125.812,-15.629,64.078
'[02:13:34.539 07/11/2076]',80.488,-15.629,86.740,-24.225,43.761,35.165,60.171,-12.503,3.907,22.662,46.496,91.429,3.516,14.066,57.436,90.256,38.291,78.535,-85.958,-14.847,-116.435,-21.099,57.436
'[02:13:34.543 07/11/2076]',71.893,-14.066,84.786,-30.867,36.728,33.211,60.952,-20.317,8.596,14.457,32.430,61.734,-7.814,19.927,50.403,55.092,30.867,76.190,-84.005,-21.880,-108.620,-13.284,50.403
'[02:13:34.547 07/11/2076]',66.032,-14.066,81.661,-33.993,32.039,32.821,58.999,-25.397,12.112,7.033,22.662,50.403,-10.940,18.364,42.198,42.979,26.178,75.018,-80.879,-23.053,-105.885,-9.377,42.198
'[02:13:34.551 07/11/2076]',64.469,-19.145,80.098,-33.211,29.695,34.383,58.217,-30.476,9.768,0.000,41.416,39.072,-5.079,0.391,38.681,56.264,22.662,75.409,-79.316,-5.861,-106.667,-25.397,38.681
'[02:13:34.555 07/11/2076]',59.780,-18.755,80.488,-35.165,26.960,36.728,58.999,-37.900,11.331,-4.689,53.919,25.788,-1.172,-5.079,33.211,59.389,18.364,75.018,-79.707,0.391,-101.197,-28.913,33.211
'[02:13:34.559 07/11/2076]',53.919,-19.536,77.363,-28.523,24.225,35.946,55.092,-33.211,14.847,-9.768,39.463,50.012,2.735,-5.470,25.006,72.283,15.629,70.330,-76.581,0.781,-93.773,-21.099,25.006
'[02:13:34.563 07/11/2076]',47.277,-23.053,75.018,-20.317,22.271,30.867,52.357,-28.132,17.973,-11.331,31.648,56.264,5.470,-4.298,19.145,73.455,12.894,66.813,-74.237,4.689,-80.488,-17.192,19.145
'[02:13:34.566 07/11/2076]',37.900,-21.880,73.846,-16.801,19.927,24.615,55.092,-27.741,24.225,-11.331,34.774,26.960,3.126,4.689,17.192,48.449,9.768,64.860,-73.065,3.516,-62.906,-10.940,17.192
'[02:13:34.570 07/11/2076]',29.695,-22.271,73.065,-11.722,16.410,21.099,55.482,-25.788,30.867,-8.987,33.602,21.880,5.079,4.298,21.099,46.105,11.331,61.343,-72.283,5.861,-50.794,-7.424,21.099
'[02:13:34.574 07/11/2076]',23.053,-25.788,73.455,-3.516,13.284,17.973,56.654,-21.099,32.821,-5.470,35.556,31.258,9.377,-5.079,28.913,60.171,12.503,60.562,-72.674,14.066,-42.198,-10.940,28.913
'[02:13:34.578 07/11/2076]',14.457,-22.271,74.628,0.781,8.987,17.582,60.562,-19.145,35.946,-1.954,37.118,10.159,9.377,-8.596,38.681,41.026,13.284,60.171,-73.846,14.066,-30.476,-12.894,38.681
'[02:13:34.582 07/11/2076]',5.861,-15.238,74.237,6.642,2.735,19.536,64.078,-14.847,38.681,0.391,27.350,-6.642,6.252,-9.768,49.621,14.457,14.847,61.343,-73.455,8.987,-21.099,-10.159,49.621
'[02:13:34.586 07/11/2076]',3.516,-13.675,73.455,16.020,-1.954,23.053,67.595,-8.596,36.728,3.126,31.258,22.662,13.284,-23.834,60.952,43.370,20.317,67.204,-72.674,15.238,-19.145,-17.973,60.952
'[02:13:34.590 07/11/2076]',0.781,-11.722,70.720,28.132,-7.814,26.960,71.502,-2.344,31.648,5.079,42.198,44.542,19.145,-34.383,69.548,70.330,24.225,71.893,-69.939,21.099,-14.847,-26.178,69.548
'[02:13:34.594 07/11/2076]',-6.642,-5.861,69.548,33.993,-16.801,32.039,74.628,0.391,28.913,6.642,37.900,24.615,7.424,-23.443,73.846,41.026,25.397,72.674,-68.767,14.847,-3.907,-20.708,73.846
'[02:13:34.598 07/11/2076]',-14.066,0.391,67.985,40.244,-23.834,34.774,76.972,5.470,25.006,9.768,29.695,20.317,-2.735,-12.112,77.363,23.443,29.304,72.674,-67.204,7.814,4.298,-14.066,77.363
'[02:13:34.602 07/11/2076]',-15.238,-1.563,68.376,50.794,-29.304,33.993,81.661,15.629,13.675,11.722,48.059,52.357,1.563,-20.317,83.223,62.515,36.728,75.409,-67.595,16.020,8.987,-25.006,83.223
'[02:13:34.605 07/11/2076]',-16.020,1.172,70.330,48.840,-32.821,36.337,83.614,17.192,10.549,7.814,58.999,50.794,-0.391,-16.020,86.740,58.608,38.681,77.363,-69.548,16.801,12.112,-25.788,86.740
'[02:13:34.609 07/11/2076]',-18.755,7.424,66.813,48.840,-34.774,35.946,78.535,24.225,7.814,4.298,42.589,54.701,-12.112,1.563,86.349,35.165,35.165,75.018,-66.032,13.284,7.424,-11.722,86.349
'[02:13:34.613 07/11/2076]',-15.629,5.079,62.515,53.529,-35.165,34.383,72.283,33.993,3.907,-1.954,37.900,67.985,-17.192,8.205,85.568,31.258,29.695,75.409,-61.734,18.755,-3.907,-3.907,85.568
'[02:13:34.617 07/11/2076]',-10.549,3.907,60.952,54.701,-35.165,32.821,71.893,38.681,-1.563,-5.079,58.999,59.389,-15.629,11.331,85.177,30.867,29.304,80.879,-60.171,29.695,-6.252,-11.722,85.177
'[02:13:34.621 07/11/2076]',-7.033,3.516,61.343,55.092,-35.165,31.258,73.065,43.370,-7.814,-5.470,74.237,59.780,-15.238,17.973,84.396,33.211,29.695,80.488,-60.562,36.337,-7.814,-13.284,84.396
'[02:13:34.625 07/11/2076]',-3.516,1.172,59.389,60.952,-34.383,28.913,69.158,53.919,-14.457,-3.516,69.939,92.991,-11.331,23.443,78.144,53.138,33.993,79.707,-58.608,37.509,-11.722,-7.424,78.144
'[02:13:34.629 07/11/2076]',-0.781,2.344,57.045,58.999,-31.648,26.569,66.422,57.045,-19.536,-0.781,71.502,95.726,-7.424,30.867,70.330,51.575,39.853,77.363,-56.264,33.993,-9.768,-5.861,70.330
'[02:13:34.633 07/11/2076]',0.391,7.814,57.045,51.575,-30.867,27.741,65.250,55.092,-23.834,1.172,75.409,76.190,-9.377,44.542,63.687,28.913,47.668,72.283,-56.264,30.085,-9.377,-2.344,63.687
'[02:13:34.637 07/11/2076]',3.126,7.424,57.827,49.231,-31.258,29.695,63.687,55.092,-29.695,5.079,77.363,87.912,-3.907,51.184,57.045,35.556,56.264,69.939,-57.045,31.258,-10.940,0.781,57.045
'[02:13:34.641 07/11/2076]',5.861,5.470,58.608,46.496,-30.085,31.258,61.734,53.919,-34.774,9.377,87.521,97.680,3.126,54.310,53.529,48.059,65.250,68.767,-57.827,35.946,-10.159,-1.172,53.529
'[02:13:34.645 07/11/2076]',4.689,7.814,60.562,36.337,-30.867,32.821,62.125,45.324,-38.681,15.238,92.210,68.376,2.344,62.515,51.575,21.490,70.720,64.860,-59.780,33.993,-7.424,0.391,51.575
'[02:13:34.648 07/11/2076]',3.907,12.894,59.389,29.695,-26.569,33.602,59.780,39.463,-38.291,21.490,83.223,49.231,-0.781,69.158,49.231,-1.954,75.800,59.780,-58.608,29.304,-10.159,5.861,49.231
'[02:13:34.652 07/11/2076]',7.424,14.066,59.389,27.350,-22.271,35.556,57.827,38.291,-40.244,28.913,86.740,69.548,5.470,58.608,51.184,29.695,87.131,54.701,-58.608,29.695,-17.973,0.781,51.184
'[02:13:34.656 07/11/2076]',8.596,16.801,60.171,23.053,-19.536,35.556,57.436,35.946,-41.807,33.211,92.210,78.144,6.252,50.403,54.701,48.840,94.945,46.886,-59.389,26.178,-21.880,-5.861,54.701
'[02:13:34.660 07/11/2076]',3.907,23.053,60.952,17.192,-17.192,35.165,55.482,32.430,-37.118,34.383,78.144,51.184,-5.470,60.171,56.264,15.629,98.852,33.211,-60.171,12.112,-23.443,2.344,56.264
'[02:13:34.664 07/11/2076]',-1.563,23.443,63.687,16.410,-15.238,30.867,51.966,33.211,-33.602,37.900,64.860,33.993,-17.973,68.376,59.389,-7.814,104.322,21.880,-62.906,1.172,-22.271,10.940,59.389
'[02:13:34.668 07/11/2076]',0.391,17.582,68.767,9.768,-10.549,30.867,51.184,25.006,-32.430,39.072,78.926,42.198,-14.847,56.654,66.813,19.145,111.746,15.629,-67.985,10.549,-27.350,0.000,66.813
'[02:13:34.672 07/11/2076]',2.735,14.847,67.985,2.344,-1.172,30.085,44.933,14.066,-27.350,37.509,84.005,35.165,-16.801,48.059,70.330,26.960,112.137,7.424,-67.204,17.192,-36.728,-4.298,70.330
'[02:13:34.676 07/11/2076]',1.563,14.066,59.780,4.689,6.252,28.523,31.258,14.066,-21.490,35.556,59.780,42.198,-29.304,46.105,71.502,26.960,106.667,-3.516,-58.999,11.722,-50.403,6.252,71.502
'[02:13:34.680 07/11/2076]',0.000,10.940,55.873,2.735,11.331,22.662,23.053,11.331,-16.020,30.867,43.370,41.807,-39.072,38.681,71.893,28.523,100.806,-12.112,-55.092,11.331,-59.780,10.549,71.893
'[02:13:34.684 07/11/2076]',-3.907,7.814,53.138,0.391,14.457,13.675,20.708,7.033,-14.847,25.788,49.621,11.331,-49.231,28.523,75.018,16.801,92.601,-16.410,-52.357,13.284,-60.952,3.907,75.018
'[02:13:34.688 07/11/2076]',-10.940,3.907,54.310,0.391,15.238,4.689,19.145,6.252,-12.112,22.662,49.621,-3.126,-56.264,23.053,76.581,13.284,86.349,-21.880,-53.529,12.112,-60.171,6.642,76.581
'[02:13:34.691 07/11/2076]',-16.410,-3.516,55.873,1.563,16.801,-2.344,15.629,5.470,-9.377,19.536,36.337,9.768,-62.125,17.192,76.581,25.788,81.661,-26.960,-55.092,14.457,-58.217,10.940,76.581
'[02:13:34.695 07/11/2076]',-22.662,-8.205,54.701,3.516,16.020,-8.987,14.847,3.907,-5.470,19.145,30.867,-0.391,-67.985,19.145,77.363,15.629,78.144,-29.304,-53.919,17.973,-57.436,17.192,77.363
'[02:13:34.699 07/11/2076]',-29.304,-11.722,52.357,7.814,14.066,-14.847,13.675,5.079,1.172,19.536,22.662,-21.099,-78.535,33.211,77.753,-9.768,74.237,-31.648,-51.575,15.238,-53.919,33.602,77.753
'[02:13:34.703 07/11/2076]',-33.602,-16.801,52.357,15.629,12.112,-19.927,14.457,9.377,7.424,17.582,18.755,-2.344,-83.223,41.026,80.098,3.907,69.158,-30.085,-51.575,18.364,-52.357,45.324,80.098
'[02:13:34.707 07/11/2076]',-36.337,-22.271,54.310,21.490,9.377,-24.615,19.536,12.112,14.066,15.238,29.695,10.940,-80.879,42.198,85.958,24.615,62.125,-23.443,-53.529,24.615,-50.403,50.012,85.958
'[02:13:34.711 07/11/2076]',-41.026,-23.834,57.045,23.053,6.642,-26.569,22.662,11.331,21.880,14.847,32.039,-17.192,-87.521,54.701,86.349,-1.954,50.012,-15.629,-56.264,22.271,-39.853,61.343,86.349
'[02:13:34.715 07/11/2076]',-48.840,-23.443,56.654,28.913,4.689,-30.476,24.225,12.503,30.476,12.503,17.582,-36.337,-99.243,70.720,87.521,-33.993,35.946,-8.205,-55.873,14.847,-30.085,79.316,87.521
'[02:13:34.719 07/11/2076]',-52.357,-27.741,54.701,37.509,2.344,-32.430,27.741,12.894,34.774,10.549,20.708,-13.284,-94.164,63.687,92.601,-7.814,31.648,0.391,-53.919,18.755,-22.662,79.707,92.601
'[02:13:34.723 07/11/2076]',-57.436,-33.211,53.138,42.198,-1.563,-33.993,29.695,10.159,37.900,7.424,26.960,-11.331,-94.945,62.906,93.773,0.000,26.178,5.470,-52.357,20.708,-10.940,81.270,93.773
'[02:13:34.727 07/11/2076]',-75.409,-28.523,44.151,50.403,-10.549,-41.026,29.304,12.503,44.933,3.516,-0.391,-41.416,-114.872,88.303,85.177,-51.966,12.112,0.000,-43.370,-0.391,8.205,107.839,85.177
'[02:13:34.730 07/11/2076]',-77.753,-23.834,37.509,48.449,-10.549,-42.198,30.085,6.252,53.529,0.391,-5.470,-37.118,-110.574,88.694,78.144,-44.542,10.159,2.344,-36.728,-7.033,18.755,112.527,78.144
'[02:13:34.734 07/11/2076]',-74.237,-22.271,35.556,46.105,-8.205,-38.681,35.165,-1.954,59.389,-2.735,16.410,-44.151,-94.554,74.237,66.032,-16.410,7.033,7.033,-34.774,1.954,26.960,98.462,66.032
'[02:13:34.738 07/11/2076]',-69.548,-14.066,28.132,42.979,-3.907,-32.039,32.821,-9.377,68.767,-8.205,21.880,-54.701,-80.879,64.469,47.668,-3.516,0.000,7.424,-27.350,2.344,32.039,94.945,47.668
'[02:13:34.742 07/11/2076]',-67.595,-9.377,26.569,44.151,-0.391,-27.741,30.085,-7.814,76.972,-15.238,2.344,-37.118,-72.283,65.250,25.397,8.205,-7.033,7.814,-25.788,1.954,38.291,102.369,25.397
'[02:13:34.746 07/11/2076]',-68.376,-8.987,28.523,46.496,-0.391,-25.788,29.695,-5.079,81.270,-24.225,-7.814,-32.821,-63.297,62.906,6.252,9.377,-13.675,6.642,-27.741,4.689,48.840,103.932,6.252
'[02:13:34.750 07/11/2076]',-70.330,-6.642,31.258,45.324,-3.126,-25.397,31.258,-1.563,81.270,-33.993,-1.954,-56.264,-55.092,64.078,-9.377,-9.768,-21.880,3.126,-30.476,6.642,67.985,99.243,-9.377
'[02:13:34.754 07/11/2076]',-70.330,-5.079,32.821,45.714,-3.516,-29.695,33.602,3.126,81.661,-46.105,-1.172,-49.231,-42.198,61.734,-25.788,-8.205,-31.258,1.563,-32.039,9.768,85.568,94.554,-25.788
'[02:13:34.758 07/11/2076]',-65.250,-5.470,31.648,49.621,-2.735,-32.821,32.821,12.503,78.535,-57.827,-0.781,-21.099,-22.662,48.059,-38.681,12.112,-40.635,0.391,-30.867,15.238,100.415,83.223,-38.681
'[02:13:34.762 07/11/2076]',-60.562,-4.298,28.913,49.621,-1.954,-36.728,32.821,20.317,73.846,-64.078,-3.126,-23.053,-7.814,42.589,-53.529,2.344,-52.357,2.344,-28.132,17.582,115.263,76.190,-53.529
'[02:13:34.766 07/11/2076]',-60.562,-1.563,23.834,47.668,-2.735,-43.370,30.867,24.615,73.065,-68.767,-17.973,-33.993,0.391,44.542,-72.674,-19.927,-61.734,0.781,-23.053,15.629,128.938,75.018,-72.674
'[02:13:34.770 07/11/2076]',-53.919,-3.126,21.099,41.807,0.000,-47.277,28.132,24.615,69.158,-69.548,-22.662,-15.629,16.020,33.602,-85.958,-3.126,-66.813,0.391,-20.317,20.708,134.017,65.641,-85.958
'[02:13:34.773 07/11/2076]',-49.621,-7.033,18.364,32.821,0.391,-51.966,24.615,21.490,62.906,-71.502,-20.317,-8.596,29.695,20.317,-100.024,12.112,-72.674,-2.735,-17.582,30.476,137.143,52.357,-100.024
'[02:13:34.777 07/11/2076]',-51.184,-5.861,12.894,21.490,1.172,-60.562,19.536,17.582,58.999,-76.581,-35.556,-34.774,29.304,20.317,-115.653,-22.271,-81.661,-16.020,-12.112,26.960,146.520,49.621,-115.653
'[02:13:34.781 07/11/2076]',-51.575,-5.861,7.424,16.410,0.781,-70.330,13.284,21.880,53.529,-79.707,-54.701,-46.496,30.476,19.536,-125.031,-51.966,-91.429,-26.569,-6.642,21.880,154.335,48.840,-125.031
'[02:13:34.785 07/11/2076]',-48.059,-12.503,6.642,17.582,-3.126,-79.707,14.847,32.039,42.979,-80.488,-50.012,-16.020,45.324,2.735,-125.421,-25.788,-92.210,-30.867,-5.861,31.258,159.805,32.430,-125.421
'[02:13:34.789 07/11/2076]',-46.886,-18.755,7.033,24.225,-8.987,-89.866,15.629,47.668,34.774,-80.098,-56.654,14.066,54.310,-4.298,-123.858,-13.284,-95.336,-35.556,-6.252,30.476,168.791,25.788,-123.858
'[02:13:34.793 07/11/2076]',-49.231,-14.847,5.079,17.973,-12.112,-91.819,15.629,47.668,37.118,-76.972,-64.469,-13.284,53.138,2.344,-119.560,-54.310,-97.289,-37.509,-4.298,23.834,170.354,27.350,-119.560
'[02:13:34.797 07/11/2076]',-48.059,-15.629,6.642,12.112,-13.675,-94.554,17.582,44.542,39.463,-74.237,-68.376,-22.271,53.529,1.563,-109.792,-71.111,-97.680,-37.509,-5.861,21.880,165.275,27.350,-109.792
'[02:13:34.801 07/11/2076]',-40.635,-19.927,4.689,11.331,-10.549,-92.210,17.582,40.635,39.853,-73.065,-42.979,-28.132,64.860,-20.317,-94.164,-53.919,-95.336,-31.258,-3.907,37.118,148.864,5.470,-94.164
'[02:13:34.805 07/11/2076]',-35.946,-21.490,4.689,11.331,-8.205,-91.819,19.536,38.681,42.979,-67.985,-28.913,-39.072,68.376,-30.476,-77.753,-53.138,-96.117,-23.443,-3.907,42.589,134.408,-1.563,-77.753
'[02:13:34.809 07/11/2076]',-33.211,-27.350,1.563,20.317,-8.596,-94.945,17.582,46.496,45.714,-61.343,-41.807,-11.722,66.813,-33.993,-63.687,-38.291,-96.117,-19.536,-0.781,41.026,121.514,2.344,-63.687
'[02:13:34.813 07/11/2076]',-31.648,-32.821,0.391,29.695,-8.987,-97.289,16.020,54.701,46.496,-53.919,-46.886,0.781,62.125,-36.337,-47.668,-31.258,-91.819,-14.457,0.391,42.979,107.839,3.126,-47.668
'[02:13:34.816 07/11/2076]',-32.039,-34.774,0.781,32.430,-8.205,-99.243,18.755,54.310,48.059,-45.714,-37.118,-22.662,54.310,-33.602,-30.476,-47.668,-88.303,-10.159,0.000,41.026,98.462,3.516,-30.476
'[02:13:34.820 07/11/2076]',-30.085,-39.853,2.344,31.258,-6.252,-98.462,17.973,49.621,48.059,-41.416,-29.304,-21.490,46.496,-35.556,-14.457,-41.807,-81.270,-12.503,-1.563,42.589,86.349,1.172,-14.457
'[02:13:34.824 07/11/2076]',-27.741,-44.933,2.735,33.993,-4.298,-96.117,15.238,48.840,43.370,-38.681,-17.582,-5.470,42.198,-44.151,1.172,-18.755,-74.628,-12.503,-1.954,48.059,73.065,-4.689,1.172
'[02:13:34.828 07/11/2076]',-27.741,-46.496,3.126,36.728,-3.126,-94.554,13.284,48.840,40.244,-35.165,-11.331,-19.927,34.774,-46.886,16.020,-31.648,-71.893,-10.549,-2.344,46.105,65.641,-5.861,16.020
'[02:13:34.832 07/11/2076]',-27.350,-45.324,3.126,38.681,-0.781,-92.601,10.549,51.184,39.463,-30.476,-18.364,-32.039,25.006,-37.118,26.569,-55.873,-69.548,-8.596,-2.344,40.244,60.171,1.172,26.569
'[02:13:34.836 07/11/2076]',-19.927,-47.668,3.126,42.979,4.689,-89.475,6.642,55.482,38.291,-24.225,-16.801,-1.563,28.523,-39.463,34.774,-28.913,-63.687,-5.861,-2.344,42.979,49.231,3.126,34.774
'[02:13:34.840 07/11/2076]',-15.238,-49.231,3.126,47.668,9.377,-85.568,3.516,58.608,35.946,-21.099,-6.642,17.582,33.211,-42.198,37.118,-2.344,-57.827,-5.470,-2.344,44.933,42.589,0.781,37.118
'[02:13:34.844 07/11/2076]',-13.284,-45.714,2.344,42.979,15.238,-82.051,-0.781,53.529,36.728,-18.364,-14.847,-3.907,22.271,-26.569,33.602,-29.695,-55.873,-12.894,-1.563,35.946,38.681,10.159,33.602
'[02:13:34.848 07/11/2076]',-13.675,-41.807,1.172,37.509,20.317,-80.098,-5.861,48.059,33.602,-14.847,-26.178,-9.768,10.940,-11.331,26.569,-44.151,-49.621,-21.490,-0.391,25.397,34.383,19.927,26.569
'[02:13:34.852 07/11/2076]',-8.596,-45.714,0.781,41.026,23.443,-80.098,-6.252,49.621,21.490,-11.331,-6.642,21.490,14.457,-19.536,27.741,1.172,-40.244,-22.271,0.000,28.132,31.648,6.252,27.741
'[02:13:34.855 07/11/2076]',-7.033,-42.198,3.126,32.039,28.523,-75.018,-8.987,39.853,14.847,-5.861,-1.563,21.490,10.549,-12.112,27.741,1.954,-32.821,-23.053,-2.344,25.788,24.225,7.033,27.741
'[02:13:34.859 07/11/2076]',-5.470,-34.774,0.000,22.662,37.900,-68.376,-19.927,31.258,11.722,-1.563,-19.927,15.238,-1.172,3.907,25.788,-23.053,-28.913,-30.476,0.781,14.066,14.457,20.317,25.788
'[02:13:34.863 07/11/2076]',-3.516,-33.211,-3.126,16.410,45.714,-62.125,-30.476,21.880,5.861,1.563,-27.350,14.457,-8.205,3.907,24.615,-26.178,-25.788,-36.728,3.907,13.675,-1.172,21.099,24.615
'[02:13:34.867 07/11/2076]',-0.391,-31.258,-4.689,7.424,54.701,-54.310,-35.946,6.252,-0.391,4.689,-9.377,-8.596,-10.549,-1.172,24.615,-26.960,-20.317,-40.244,5.470,19.927,-12.894,7.424,24.615
'[02:13:34.871 07/11/2076]',2.735,-30.085,-7.814,-0.391,64.860,-48.449,-45.324,-6.252,-3.907,9.377,-2.344,-23.053,-14.457,-4.689,23.834,-25.788,-16.801,-49.621,8.596,20.708,-21.490,0.391,23.834
'[02:13:34.875 07/11/2076]',2.735,-32.430,-14.847,-0.781,70.330,-48.840,-55.482,-11.722,-10.159,12.894,-15.629,-0.781,-19.927,-9.768,20.317,-5.861,-16.020,-59.780,15.629,18.364,-29.695,-3.516,20.317
'[02:13:34.879 07/11/2076]',1.563,-35.556,-22.271,-1.954,76.190,-51.966,-65.641,-17.582,-16.020,13.675,-22.662,1.172,-25.788,-16.410,19.927,-2.344,-14.457,-70.330,23.053,17.192,-37.900,-8.205,19.927
'[02:13:34.883 07/11/2076]',-1.563,-36.337,-30.867,-7.814,83.223,-56.264,-78.144,-26.178,-21.099,11.722,-27.350,-19.145,-38.291,-18.755,17.973,-18.755,-18.755,-81.270,31.648,12.503,-42.979,-12.112,17.973
'[02:13:34.887 07/11/2076]',-5.079,-41.026,-40.244,-8.205,87.912,-62.125,-89.866,-32.039,-27.741,3.126,-30.867,-8.596,-48.449,-28.913,15.629,-2.344,-23.834,-91.429,41.026,12.112,-52.747,-18.364,15.629
'[02:13:34.891 07/11/2076]',-7.424,-49.621,-47.668,-7.033,92.210,-67.204,-101.587,-36.337,-35.165,-5.861,-26.960,7.033,-56.264,-46.886,13.284,27.741,-30.867,-99.243,48.449,16.410,-64.078,-30.085,13.284
'[02:13:34.895 07/11/2076]',-12.894,-51.184,-55.873,-10.159,96.117,-70.330,-113.309,-43.370,-39.853,-17.582,-28.132,-9.377,-72.283,-51.966,9.377,18.364,-39.072,-106.667,56.654,11.331,-71.111,-35.165,9.377
'[02:13:34.898 07/11/2076]',-19.145,-51.575,-64.469,-12.112,99.634,-74.237,-124.640,-49.231,-41.416,-28.132,-39.853,-24.225,-90.256,-53.138,5.079,3.907,-48.059,-114.872,65.250,3.516,-78.926,-35.556,5.079
'[02:13:34.902 07/11/2076]',-23.443,-57.045,-71.893,-9.768,101.197,-80.879,-132.063,-52.747,-46.105,-39.853,-36.728,2.344,-96.508,-73.455,3.516,44.151,-53.138,-119.560,72.674,7.033,-91.038,-48.449,3.516
'[02:13:34.906 07/11/2076]',-28.913,-62.515,-76.190,-8.205,100.415,-88.303,-134.408,-55.092,-50.794,-51.966,-25.788,21.490,-101.978,-89.866,8.205,75.409,-59.780,-122.295,76.972,10.549,-99.634,-58.999,8.205
'[02:13:34.910 07/11/2076]',-41.807,-60.952,-78.926,-8.987,96.117,-96.899,-135.189,-56.654,-53.138,-59.389,-34.774,1.954,-123.858,-80.879,10.940,46.886,-72.674,-127.375,79.707,-1.172,-100.415,-50.403,10.940
'[02:13:34.914 07/11/2076]',-57.045,-58.217,-80.488,-7.424,87.912,-108.620,-128.938,-54.701,-54.310,-65.250,-37.900,-14.847,-142.222,-74.237,15.629,26.960,-80.879,-127.375,81.270,-15.238,-98.852,-43.761,15.629
'[02:13:34.918 07/11/2076]',-57.827,-60.952,-77.363,-6.252,84.005,-110.574,-121.905,-55.092,-56.654,-68.376,-26.960,25.006,-137.924,-84.396,22.271,71.502,-80.488,-121.123,78.144,-9.768,-105.885,-48.449,22.271
'[02:13:34.922 07/11/2076]',-63.297,-56.654,-75.800,-8.987,77.753,-110.965,-114.481,-58.999,-57.045,-71.893,-20.317,21.490,-145.348,-77.753,25.397,68.767,-87.131,-115.263,76.581,-14.066,-109.792,-44.151,25.397
'[02:13:34.926 07/11/2076]',-67.985,-49.621,-79.707,-12.894,74.628,-105.495,-117.607,-64.078,-50.403,-78.535,-36.337,28.523,-156.679,-66.422,23.834,60.952,-93.773,-112.137,80.488,-21.490,-121.905,-30.867,23.834
'[02:13:34.930 07/11/2076]',-71.502,-48.059,-82.442,-11.722,69.548,-104.713,-117.216,-62.906,-46.105,-83.223,-44.151,42.979,-162.149,-58.608,25.788,62.906,-98.462,-106.667,83.223,-23.443,-132.454,-21.099,25.788
'[02:13:34.934 07/11/2076]',-76.190,-46.105,-82.442,-10.940,62.515,-106.276,-111.355,-62.515,-46.886,-80.098,-22.271,21.880,-166.056,-52.357,34.383,56.264,-101.197,-97.680,83.223,-18.364,-135.580,-26.569,34.383
'[02:13:34.938 07/11/2076]',-80.879,-45.714,-82.833,-8.987,55.873,-109.792,-107.839,-58.608,-44.933,-74.628,-10.549,15.238,-169.182,-45.324,44.542,53.919,-102.759,-91.038,83.614,-17.192,-141.050,-23.443,44.542
'[02:13:34.941 07/11/2076]',-84.396,-50.794,-84.786,-0.391,48.449,-116.435,-106.667,-46.496,-48.059,-64.078,-14.066,44.151,-169.573,-40.244,51.575,75.409,-100.806,-87.131,85.568,-16.410,-147.302,-16.410,51.575
'[02:13:34.945 07/11/2076]',-88.303,-53.138,-85.177,4.689,40.244,-121.514,-100.806,-40.635,-52.357,-51.966,-11.722,42.589,-173.871,-30.085,56.264,72.674,-98.852,-80.098,85.958,-14.847,-149.255,-10.549,56.264
'[02:13:34.949 07/11/2076]',-94.164,-52.747,-85.177,9.768,29.304,-123.468,-93.773,-34.774,-54.701,-45.714,-8.205,23.834,-181.294,-14.066,58.999,50.012,-98.852,-69.939,85.958,-16.801,-147.692,-1.563,58.999
'[02:13:34.953 07/11/2076]',-96.508,-53.529,-82.833,18.364,18.364,-121.123,-87.131,-25.397,-57.827,-37.509,-3.516,43.761,-178.950,-5.079,58.217,68.767,-94.945,-58.217,83.614,-14.457,-144.567,4.298,58.217
'[02:13:34.957 07/11/2076]',-95.336,-54.310,-78.926,27.350,9.377,-117.607,-76.581,-16.410,-59.780,-32.821,16.020,57.436,-168.791,-1.954,58.608,91.819,-90.256,-43.761,79.707,-6.252,-136.752,2.344,58.608
'[02:13:34.961 07/11/2076]',-96.508,-51.966,-74.628,32.430,-0.391,-112.527,-67.985,-9.768,-58.999,-26.960,24.225,31.258,-164.493,7.814,55.482,68.767,-89.475,-29.695,75.409,-0.781,-126.203,5.861,55.482
'[02:13:34.965 07/11/2076]',-101.197,-50.794,-73.065,41.807,-12.112,-111.746,-62.515,1.954,-59.389,-23.834,14.457,18.755,-163.321,20.708,49.621,41.416,-90.256,-22.271,73.846,-0.781,-112.137,15.629,49.621
'[02:13:34.969 07/11/2076]',-101.197,-53.919,-69.548,53.138,-20.708,-111.746,-57.045,16.410,-66.422,-19.145,21.490,47.668,-148.864,15.238,47.277,67.595,-86.740,-12.894,70.330,11.331,-97.289,10.549,47.277
'[02:13:34.973 07/11/2076]',-102.759,-57.436,-60.952,60.952,-31.258,-109.792,-49.231,28.913,-74.628,-15.629,32.039,60.562,-136.361,13.675,46.105,76.581,-85.958,-5.079,61.734,21.880,-78.535,5.470,46.105
'[02:13:34.977 07/11/2076]',-114.872,-52.747,-56.654,67.985,-46.105,-112.137,-45.714,46.886,-80.098,-11.722,8.596,39.463,-140.659,37.118,34.383,22.662,-91.819,-7.033,57.436,8.596,-46.105,22.662,34.383
'[02:13:34.980 07/11/2076]',-115.263,-47.277,-50.794,66.422,-48.840,-107.839,-41.416,50.794,-82.833,-6.252,4.298,39.072,-127.375,43.761,21.099,14.066,-87.912,-3.516,51.575,7.424,-21.880,26.960,21.099
'[02:13:34.984 07/11/2076]',-108.230,-44.933,-40.244,60.952,-52.747,-96.508,-32.039,48.840,-85.568,-0.781,26.178,35.946,-96.899,33.211,8.987,29.695,-81.270,5.470,41.026,24.225,-2.344,12.894,8.987
'[02:13:34.988 07/11/2076]',-100.806,-39.853,-35.556,58.217,-52.747,-84.396,-30.476,49.231,-82.442,0.391,31.258,31.258,-73.065,27.350,-9.768,35.165,-80.488,8.987,36.337,33.993,12.112,10.549,-9.768
'[02:13:34.992 07/11/2076]',-98.852,-32.821,-32.821,58.608,-55.873,-73.065,-31.258,54.701,-78.535,0.000,10.549,44.933,-57.045,29.695,-30.476,35.165,-80.488,8.596,33.602,31.648,30.085,18.755,-30.476
'[02:13:34.996 07/11/2076]',-97.289,-25.788,-26.569,59.389,-60.562,-62.125,-29.695,61.343,-75.409,-1.172,0.000,51.966,-39.853,25.006,-42.979,32.821,-77.363,8.596,27.350,33.993,44.542,19.927,-42.979
'[02:13:35.000 07/11/2076]',-94.554,-18.364,-18.755,55.482,-62.906,-50.794,-24.615,60.952,-71.502,-3.907,7.814,29.304,-25.397,16.410,-49.621,19.536,-71.893,3.516,19.536,35.165,60.952,8.205,-49.621
'[02:13:35.004 07/11/2076]',-90.647,-10.940,-11.331,50.794,-63.297,-38.291,-19.536,58.999,-65.250,-5.861,9.377,26.960,-9.377,4.689,-53.919,22.271,-61.343,-1.563,12.112,29.695,75.018,0.391,-53.919
'[02:13:35.008 07/11/2076]',-81.661,-3.516,-4.298,49.231,-61.734,-22.271,-15.629,58.217,-59.389,-5.861,5.861,48.840,10.940,-12.112,-52.747,41.807,-46.886,-3.907,5.079,30.085,80.879,-10.549,-52.747
'[02:13:35.012 07/11/2076]',-70.330,1.563,3.126,43.761,-56.654,-6.252,-12.503,54.701,-51.184,-4.689,3.516,41.416,26.569,-25.397,-50.012,37.118,-33.602,-6.252,-2.344,26.569,85.177,-19.536,-50.012
'[02:13:35.016 07/11/2076]',-60.562,9.377,9.768,39.853,-52.357,8.596,-10.549,53.529,-40.244,-1.563,-7.814,26.569,37.118,-32.430,-48.840,19.145,-21.880,-6.252,-8.987,16.020,87.912,-18.755,-48.840
'[02:13:35.020 07/11/2076]',-46.105,17.192,16.801,33.993,-46.105,23.053,-5.861,50.794,-32.430,1.563,-10.159,40.635,55.482,-46.496,-44.933,35.556,-7.033,-3.126,-16.020,14.066,84.786,-25.397,-44.933
'[02:13:35.023 07/11/2076]',-30.867,21.099,24.615,26.960,-42.589,39.463,0.391,45.324,-23.443,4.298,-3.907,47.277,73.455,-63.297,-40.635,55.092,7.814,0.391,-23.834,16.801,77.363,-34.774,-40.635
'[02:13:35.027 07/11/2076]',-20.708,29.695,30.476,17.192,-41.026,53.529,6.642,37.900,-8.596,7.814,-11.331,16.801,79.707,-62.125,-38.681,25.006,21.490,1.563,-29.695,6.252,70.720,-28.132,-38.681
'[02:13:35.031 07/11/2076]',-11.722,39.463,32.821,12.503,-39.853,64.860,15.629,33.211,7.033,12.112,-28.523,-0.391,84.005,-53.529,-35.946,-2.735,37.118,2.735,-32.039,-6.252,64.469,-14.847,-35.946
'[02:13:35.035 07/11/2076]',2.344,41.026,40.244,11.331,-41.026,76.581,27.741,32.430,20.708,18.364,-23.834,21.099,99.243,-55.482,-27.741,21.099,54.310,13.284,-39.463,-6.252,55.873,-13.675,-27.741
'[02:13:35.039 07/11/2076]',12.503,39.463,45.714,14.066,-42.198,80.488,37.509,37.509,32.821,23.443,-28.913,43.370,104.322,-49.231,-19.536,35.556,62.906,20.317,-44.933,-13.675,46.496,-1.954,-19.536
'[02:13:35.043 07/11/2076]',20.317,46.496,50.012,5.079,-41.416,88.303,44.542,30.867,50.403,28.132,-39.072,11.722,101.197,-28.132,-13.284,-7.424,64.860,28.913,-49.231,-27.350,38.291,16.020,-13.284
'[02:13:35.047 07/11/2076]',29.695,51.184,53.529,-1.954,-39.463,96.508,51.184,23.834,63.297,34.774,-44.151,-1.563,98.071,-12.112,-2.735,-29.695,66.032,42.979,-52.747,-33.602,23.834,30.476,-2.735
'[02:13:35.051 07/11/2076]',44.933,50.012,55.482,-3.907,-34.774,107.448,56.654,17.973,74.237,36.728,-21.490,-1.954,105.885,-16.410,7.814,-10.159,69.939,57.827,-54.701,-22.662,1.563,25.788,7.814
'[02:13:35.055 07/11/2076]',54.701,54.310,58.217,-7.033,-30.085,115.653,64.469,9.377,87.131,40.244,-8.205,-14.847,107.448,-12.112,17.192,-7.814,74.628,69.548,-57.436,-23.443,-14.847,32.430,17.192
'[02:13:35.059 07/11/2076]',58.608,59.780,54.701,-2.344,-29.304,122.295,68.376,9.768,100.415,44.933,-25.397,5.470,100.024,0.391,21.490,2.735,78.926,74.237,-53.919,-31.648,-27.741,49.621,21.490
'[02:13:35.063 07/11/2076]',60.171,63.687,50.794,1.172,-30.867,125.812,70.720,10.549,112.527,47.277,-37.509,12.503,92.601,12.503,21.490,7.033,80.488,77.753,-50.012,-38.291,-33.993,62.906,21.490
'[02:13:35.066 07/11/2076]',55.482,70.720,49.621,-2.735,-35.165,126.593,75.800,5.470,120.733,47.668,-32.821,-18.755,82.833,26.960,19.145,-12.894,77.753,82.051,-48.840,-47.668,-30.476,72.674,19.145
'[02:13:35.070 07/11/2076]',49.621,76.972,46.105,-8.596,-41.416,128.938,77.363,-0.781,125.812,50.794,-33.993,-29.304,76.581,37.118,15.238,-17.192,74.628,84.396,-45.324,-52.357,-23.834,79.707,15.238
'[02:13:35.074 07/11/2076]',43.761,76.581,42.198,-9.377,-48.059,126.984,75.800,-1.172,125.031,48.059,-33.602,-14.847,76.972,33.993,14.066,-0.781,66.813,85.958,-41.416,-47.668,-20.317,78.535,14.066
'[02:13:35.078 07/11/2076]',32.821,76.190,38.681,-10.159,-56.264,118.779,75.409,0.000,120.342,42.198,-31.258,-25.006,69.939,29.695,16.020,-10.549,55.482,85.568,-37.900,-47.277,-15.238,74.628,16.020
'[02:13:35.082 07/11/2076]',18.364,78.535,32.821,-9.768,-65.250,110.183,72.283,3.126,115.263,35.556,-43.370,-35.946,54.701,26.569,21.880,-32.821,46.105,80.098,-32.039,-50.012,-13.284,70.720,21.880
'[02:13:35.086 07/11/2076]',12.112,76.972,25.397,-6.642,-71.111,103.541,68.767,6.642,107.057,28.132,-42.979,-6.252,50.794,5.470,32.821,-4.298,41.807,71.502,-24.615,-43.761,-18.364,52.357,32.821
'[02:13:35.090 07/11/2076]',5.470,70.330,18.755,-4.689,-76.972,95.726,60.562,10.549,94.945,16.801,-33.211,16.801,44.151,-17.582,42.979,25.397,36.337,59.780,-17.973,-36.337,-21.880,31.258,42.979
'[02:13:35.094 07/11/2076]',-7.424,71.111,9.377,-6.642,-81.661,84.786,50.012,12.112,84.005,4.689,-40.635,-1.954,24.615,-20.317,45.324,-3.907,25.006,44.933,-8.596,-40.244,-14.457,24.615,45.324
'[02:13:35.098 07/11/2076]',-19.145,67.204,1.563,-6.642,-85.568,69.939,41.416,15.238,73.065,-3.126,-53.529,-6.642,11.722,-20.708,41.026,-23.834,14.847,34.383,-0.781,-44.151,-3.126,24.225,41.026
'[02:13:35.102 07/11/2076]',-28.132,51.966,-4.298,1.563,-92.210,50.794,38.291,23.053,50.403,-13.284,-35.165,33.211,15.238,-39.463,35.165,22.662,5.861,32.039,5.079,-26.960,10.549,1.954,35.165
'[02:13:35.105 07/11/2076]',-36.728,45.324,-11.722,5.470,-95.726,37.118,31.258,28.132,34.774,-22.271,-35.556,43.370,12.894,-40.244,26.178,19.927,-8.596,32.039,12.503,-22.271,21.880,-0.391,26.178
'[02:13:35.109 07/11/2076]',-46.105,44.542,-19.927,6.252,-98.071,28.132,23.443,29.695,23.834,-27.741,-47.668,30.085,3.126,-26.569,12.894,-12.112,-22.662,26.960,20.708,-24.225,30.867,8.205,12.894
'[02:13:35.113 07/11/2076]',-46.496,41.026,-29.304,6.642,-94.164,23.443,14.066,26.960,14.847,-30.476,-53.529,30.085,2.344,-25.788,1.954,-18.364,-30.476,23.443,30.085,-18.364,30.085,7.814,1.954
'[02:13:35.117 07/11/2076]',-39.072,39.072,-35.165,3.907,-84.396,22.662,7.814,20.708,7.033,-30.867,-34.383,16.410,12.503,-33.602,-2.735,-17.973,-27.741,17.582,35.946,-6.642,29.304,-5.470,-2.735
'[02:13:35.121 07/11/2076]',-31.258,37.118,-35.556,0.391,-73.846,21.490,5.079,15.629,2.735,-32.821,-19.536,9.768,19.927,-38.291,-7.424,-14.457,-26.960,11.331,36.337,-1.172,28.523,-12.503,-7.424
'[02:13:35.125 07/11/2076]',-23.834,34.383,-39.463,5.861,-62.125,20.317,0.391,17.973,1.954,-34.383,-29.695,44.151,28.132,-42.979,-10.940,7.033,-23.834,5.861,40.244,-2.735,29.695,-12.503,-10.940
'[02:13:35.129 07/11/2076]',-18.755,31.648,-40.635,7.814,-53.138,18.364,-3.907,17.973,0.391,-35.165,-34.383,55.873,33.211,-47.668,-11.331,13.284,-21.490,1.563,41.416,-4.689,30.085,-14.847,-11.331
'[02:13:35.133 07/11/2076]',-16.801,33.993,-40.244,6.252,-46.886,19.927,-5.079,14.847,1.563,-36.337,-29.304,36.728,33.211,-46.886,-10.159,-3.126,-17.973,-2.735,41.026,-8.987,32.039,-15.238,-10.159
'[02:13:35.137 07/11/2076]',-14.066,34.774,-39.463,5.861,-42.979,23.443,-5.079,10.549,1.563,-37.509,-26.960,43.370,35.946,-51.966,-8.987,5.470,-11.331,-6.642,40.244,-9.768,33.211,-17.582,-8.987
'[02:13:35.141 07/11/2076]',-10.159,33.211,-36.337,3.907,-42.979,27.741,-2.735,7.814,-0.391,-38.291,-21.880,58.999,43.370,-63.297,-8.987,24.615,-3.907,-10.159,37.118,-5.079,32.821,-26.178,-8.987
'[02:13:35.145 07/11/2076]',-6.252,39.463,-34.774,-1.563,-43.370,35.165,-1.563,5.079,-1.172,-42.198,-22.271,43.370,45.324,-64.469,-10.159,7.033,1.563,-17.582,35.556,-8.205,33.602,-28.132,-10.159
'[02:13:35.148 07/11/2076]',-4.689,45.714,-34.383,-6.642,-42.589,38.681,-1.954,4.298,-0.391,-46.886,-33.993,37.118,42.589,-59.389,-14.066,-14.066,0.781,-24.615,35.165,-12.894,32.821,-24.615,-14.066
'[02:13:35.152 07/11/2076]',3.126,46.886,-35.165,-3.907,-39.853,43.370,-2.735,9.377,0.391,-51.575,-35.165,73.455,50.794,-63.297,-17.192,16.801,2.735,-28.132,35.946,-10.549,28.913,-25.397,-17.192
'[02:13:35.156 07/11/2076]',10.940,48.059,-34.774,-3.126,-36.337,48.449,-4.689,12.894,-1.172,-50.794,-29.304,93.382,53.529,-57.436,-20.708,36.337,7.814,-33.211,35.556,-12.112,28.523,-23.053,-20.708
'[02:13:35.160 07/11/2076]',12.112,54.701,-32.430,-8.205,-32.821,50.794,-3.516,11.722,0.781,-44.542,-35.165,66.422,43.370,-26.960,-25.397,-2.344,11.331,-36.728,33.211,-22.662,31.258,-2.735,-25.397
'[02:13:35.164 07/11/2076]',14.066,58.608,-28.913,-8.987,-31.258,51.575,0.391,12.503,0.391,-32.039,-37.509,46.496,33.602,6.642,-29.695,-33.993,19.145,-31.258,29.695,-28.132,33.602,17.582,-29.695
'[02:13:35.168 07/11/2076]',25.397,60.171,-22.662,-12.894,-26.178,58.608,7.033,9.377,-0.781,-14.847,-17.973,63.297,41.807,22.662,-27.350,-8.596,34.383,-18.755,23.443,-19.536,25.006,23.053,-27.350
'[02:13:35.172 07/11/2076]',35.556,64.469,-17.192,-20.708,-17.973,67.204,9.768,1.954,3.126,0.391,-1.563,59.389,48.449,38.681,-23.053,-2.735,43.370,-6.252,17.973,-13.675,15.238,28.913,-23.053
'[02:13:35.176 07/11/2076]',41.026,71.502,-20.708,-21.099,-8.987,74.237,3.126,0.781,8.205,12.894,-16.801,61.734,42.589,62.515,-25.397,-13.675,44.542,-3.516,21.490,-23.053,8.205,48.059,-25.397
'[02:13:35.180 07/11/2076]',46.886,75.018,-21.880,-23.443,-2.344,78.535,-0.781,0.391,13.675,24.225,-25.397,62.906,41.416,77.363,-25.006,-18.364,48.449,0.000,22.662,-39.463,11.722,59.389,-25.006
'[02:13:35.184 07/11/2076]',52.357,76.581,-17.973,-30.867,4.298,80.488,0.000,-5.470,14.457,35.165,-6.252,36.337,43.761,82.442,-23.443,-23.443,49.621,5.470,18.755,-50.794,26.178,52.357,-23.443
'[02:13:35.188 07/11/2076]',55.482,78.535,-11.722,-35.946,11.722,78.535,3.126,-8.205,12.503,48.449,7.033,21.099,46.105,94.164,-22.662,-27.350,49.231,15.629,12.503,-67.985,42.589,56.654,-22.662
'[02:13:35.191 07/11/2076]',59.780,77.753,-4.689,-35.946,17.582,78.926,3.126,-4.689,8.596,61.734,3.126,42.589,47.277,106.276,-23.053,-12.503,52.747,26.569,5.470,-78.926,47.668,66.813,-23.053
'[02:13:35.195 07/11/2076]',64.078,79.316,5.079,-38.681,24.615,80.098,6.252,-2.735,5.861,72.674,10.159,44.542,47.277,116.825,-19.927,-9.768,51.184,40.635,-4.298,-83.614,47.668,72.674,-19.927
'[02:13:35.199 07/11/2076]',64.469,84.005,13.675,-35.165,33.993,78.144,9.377,3.516,2.735,81.270,12.894,31.648,41.026,129.719,-16.801,-23.443,46.496,52.357,-12.894,-85.958,48.059,77.753,-16.801
'[02:13:35.203 07/11/2076]',65.250,84.786,21.880,-32.821,41.416,76.581,10.159,9.377,1.563,86.740,12.112,49.621,40.244,132.454,-14.847,-7.424,42.198,58.217,-21.099,-78.144,40.244,80.879,-14.847
'[02:13:35.207 07/11/2076]',68.376,84.396,33.211,-32.821,50.403,75.018,13.284,12.503,3.907,87.521,23.834,64.078,46.886,128.547,-12.894,17.973,36.337,62.515,-32.430,-62.515,34.383,75.409,-12.894
'[02:13:35.211 07/11/2076]',69.158,88.303,42.589,-37.509,61.734,71.502,16.410,10.549,7.033,87.131,28.132,37.509,48.059,128.938,-17.582,1.954,21.880,67.204,-41.807,-53.919,32.039,74.237,-17.582
'[02:13:35.215 07/11/2076]',68.376,87.521,48.449,-41.416,69.939,63.687,16.020,10.940,9.768,83.223,16.020,23.053,44.933,132.063,-25.788,-17.582,6.642,71.502,-47.668,-50.012,26.960,80.098,-25.788
'[02:13:35.219 07/11/2076]',72.283,82.833,53.529,-40.244,75.018,56.654,17.192,17.192,8.205,78.926,15.629,52.747,53.919,125.421,-39.463,16.410,-2.735,75.018,-52.747,-39.853,25.788,76.581,-39.463
'[02:13:35.223 07/11/2076]',74.237,76.972,57.827,-42.589,76.581,45.714,20.708,21.099,5.079,69.548,18.364,63.687,60.171,119.560,-54.310,32.821,-16.801,76.972,-57.045,-37.509,36.337,68.376,-54.310
'[02:13:35.227 07/11/2076]',66.032,75.409,57.045,-47.277,70.720,28.913,21.099,28.523,0.781,61.734,-9.377,40.244,44.933,136.752,-73.065,-15.238,-39.072,72.674,-56.264,-55.092,55.092,83.223,-73.065
'[02:13:35.230 07/11/2076]',64.469,75.018,60.562,-56.264,66.813,21.880,27.741,25.397,2.735,54.701,-11.722,37.118,47.277,143.004,-84.396,-21.490,-47.277,75.800,-59.780,-60.952,64.860,87.912,-84.396
'[02:13:35.234 07/11/2076]',69.939,74.628,66.422,-64.078,64.078,23.443,38.291,18.364,-0.781,50.403,15.629,42.589,62.906,128.156,-87.131,4.298,-48.059,87.131,-65.641,-51.966,71.502,70.720,-87.131
'[02:13:35.238 07/11/2076]',73.065,74.237,67.985,-71.111,62.515,26.569,41.416,12.112,-4.298,42.198,32.821,47.277,74.628,111.746,-87.912,19.927,-55.092,96.117,-67.204,-44.542,68.767,61.734,-87.912
'[02:13:35.242 07/11/2076]',71.111,77.363,67.985,-71.893,55.873,29.695,44.542,12.503,-7.033,37.118,23.443,64.469,75.409,110.183,-91.819,25.006,-60.171,104.713,-67.204,-46.886,68.767,67.985,-91.819
'[02:13:35.246 07/11/2076]',70.720,80.879,67.204,-73.065,48.059,35.946,48.840,10.940,-12.503,35.556,17.192,72.283,76.972,106.276,-95.726,25.397,-58.217,111.355,-66.422,-50.794,71.111,70.720,-95.726
'[02:13:35.250 07/11/2076]',69.158,85.177,67.985,-78.535,40.635,38.291,55.873,6.642,-19.536,33.211,31.648,48.449,77.753,102.759,-96.899,11.331,-57.045,113.700,-67.204,-53.138,78.144,64.469,-96.899
'[02:13:35.254 07/11/2076]',66.422,90.256,69.158,-84.786,34.774,39.853,60.562,4.298,-24.615,32.039,42.198,36.728,76.190,101.978,-98.071,6.252,-55.873,114.872,-68.376,-57.045,80.879,65.641,-98.071
'[02:13:35.258 07/11/2076]',66.032,92.991,66.813,-87.521,28.913,42.198,61.343,4.298,-28.913,32.430,42.979,52.747,78.535,97.289,-98.071,22.662,-50.794,116.044,-66.032,-57.436,74.237,66.422,-98.071
'[02:13:35.262 07/11/2076]',62.125,94.945,61.343,-89.866,20.317,38.681,58.608,8.596,-37.118,29.304,45.714,46.496,71.502,91.038,-94.945,16.801,-50.403,112.918,-60.562,-57.827,65.250,63.687,-94.945
'[02:13:35.266 07/11/2076]',55.482,96.508,52.747,-92.601,11.722,30.085,53.529,14.066,-44.542,24.615,42.589,34.383,56.654,90.256,-90.256,-0.391,-53.919,109.011,-51.966,-61.343,53.529,65.250,-90.256
'[02:13:35.270 07/11/2076]',54.310,94.164,45.324,-95.336,4.298,25.397,48.059,17.582,-55.873,23.443,44.542,53.919,46.496,81.270,-80.488,19.145,-49.621,105.104,-44.542,-57.827,35.946,60.171,-80.488
'[02:13:35.273 07/11/2076]',58.217,89.084,39.072,-97.289,-1.563,23.834,44.933,19.145,-67.985,24.225,60.952,68.767,38.681,71.502,-67.985,43.370,-42.198,102.369,-38.291,-51.184,16.410,49.231,-67.985
'[02:13:35.277 07/11/2076]',57.827,87.131,32.039,-100.415,-6.252,21.490,39.853,19.536,-76.190,25.788,65.250,49.621,20.317,77.753,-54.310,21.099,-38.681,99.634,-31.258,-53.529,-0.391,50.403,-54.310
'[02:13:35.281 07/11/2076]',58.608,86.349,23.834,-96.899,-9.768,19.536,36.728,24.225,-82.051,34.774,64.078,37.900,2.344,91.038,-40.635,2.344,-33.993,103.541,-23.053,-59.389,-15.238,56.264,-40.635
'[02:13:35.285 07/11/2076]',64.860,78.535,19.536,-87.521,-15.629,17.973,39.853,32.039,-91.429,45.714,78.144,66.422,-1.172,87.131,-23.834,37.509,-25.788,114.872,-18.755,-51.575,-33.602,48.840,-23.834
'[02:13:35.289 07/11/2076]',66.422,71.111,13.284,-75.018,-21.880,13.675,42.198,41.416,-99.634,56.264,83.614,91.038,-8.987,90.647,-12.894,63.297,-18.364,123.077,-12.503,-51.575,-45.324,50.403,-12.894
'[02:13:35.293 07/11/2076]',66.032,72.283,7.814,-77.363,-27.350,17.192,41.807,35.946,-101.587,68.376,82.051,56.264,-25.397,108.230,-7.033,29.695,-8.596,125.812,-7.033,-60.171,-51.966,59.780,-7.033
'[02:13:35.297 07/11/2076]',71.111,71.111,3.907,-80.879,-27.741,21.880,41.807,27.741,-102.369,79.707,80.879,40.635,-33.993,114.872,-0.781,19.927,4.298,131.282,-3.126,-64.078,-63.297,62.125,-0.781
'[02:13:35.301 07/11/2076]',82.442,64.078,-1.954,-78.535,-27.350,31.258,40.635,19.145,-105.104,86.740,105.885,38.681,-26.569,101.587,1.954,50.012,20.708,137.924,2.735,-48.449,-80.488,44.542,1.954
'[02:13:35.305 07/11/2076]',91.429,60.562,-2.344,-82.051,-25.788,40.635,41.026,9.768,-103.150,92.210,121.514,27.350,-23.443,96.899,7.424,57.045,34.774,141.050,3.126,-42.589,-89.475,35.556,7.424
'[02:13:35.309 07/11/2076]',96.117,57.436,-8.987,-73.846,-25.788,43.370,36.337,14.457,-98.462,95.336,103.150,48.449,-24.615,100.415,10.159,63.297,39.853,138.315,9.768,-44.933,-96.508,39.853,10.159
'[02:13:35.313 07/11/2076]',97.289,51.966,-15.629,-64.078,-26.960,41.807,33.993,18.755,-96.117,98.071,89.475,58.217,-26.569,99.634,11.722,64.469,42.979,132.063,16.410,-44.933,-96.508,41.026,11.722
'[02:13:35.316 07/11/2076]',96.508,48.840,-16.801,-63.297,-25.397,41.026,33.602,13.675,-93.773,100.415,93.773,30.476,-27.350,98.852,16.020,43.370,48.449,125.031,17.582,-46.105,-89.866,40.244,16.020
'[02:13:35.320 07/11/2076]',97.680,46.105,-20.708,-60.562,-20.317,41.807,30.085,9.377,-89.866,103.541,94.554,21.490,-25.788,96.117,18.755,39.463,49.231,117.607,21.490,-48.449,-80.879,40.635,18.755
'[02:13:35.324 07/11/2076]',97.289,38.681,-25.006,-52.747,-15.238,40.244,23.053,8.596,-87.131,105.495,91.429,34.383,-17.192,84.786,17.582,58.608,50.794,110.574,25.788,-44.542,-72.674,38.291,17.582
'[02:13:35.328 07/11/2076]',94.164,34.774,-28.132,-50.012,-10.549,35.946,17.582,5.079,-81.661,106.667,87.131,16.020,-13.284,80.098,14.847,47.277,50.794,104.713,28.913,-44.151,-58.608,37.509,14.847
'[02:13:35.332 07/11/2076]',89.475,33.993,-31.648,-48.840,-5.470,31.258,13.284,1.954,-71.893,105.495,70.720,-6.642,-13.675,85.568,7.033,18.364,47.277,94.945,32.430,-47.668,-44.933,45.714,7.033
'[02:13:35.336 07/11/2076]',89.866,30.085,-37.118,-44.542,0.391,26.960,5.861,2.735,-63.687,101.978,60.562,9.768,-1.954,75.409,-3.126,37.118,44.151,85.568,37.900,-44.151,-35.556,45.714,-3.126
'[02:13:35.340 07/11/2076]',91.038,23.053,-39.072,-41.026,3.516,22.271,2.735,1.954,-58.217,96.117,56.654,23.834,10.549,59.389,-12.894,61.734,42.198,75.018,39.853,-37.900,-26.178,39.853,-12.894
'[02:13:35.344 07/11/2076]',87.912,21.880,-42.589,-45.324,4.298,18.755,-0.391,-2.344,-51.966,92.210,39.853,-4.689,11.331,57.827,-25.397,30.476,38.681,62.125,43.370,-44.542,-10.549,43.761,-25.397
'[02:13:35.348 07/11/2076]',81.270,16.801,-45.324,-45.324,2.735,12.894,-6.252,-1.954,-46.886,89.084,17.582,-15.629,14.847,50.012,-35.165,12.894,35.946,50.403,46.105,-47.668,3.126,44.542,-35.165
'[02:13:35.352 07/11/2076]',78.535,1.954,-46.496,-36.728,-1.563,3.516,-7.424,1.954,-49.231,84.396,22.662,21.099,32.430,18.755,-38.291,65.641,40.244,42.589,47.277,-34.774,16.020,24.225,-38.291
'[02:13:35.355 07/11/2076]',73.455,-5.079,-47.277,-35.946,-3.126,-1.954,-11.722,1.172,-46.105,78.926,16.801,17.582,38.291,6.642,-42.198,64.469,41.026,33.211,48.059,-28.913,26.960,16.020,-42.198
'[02:13:35.359 07/11/2076]',62.125,-8.987,-49.621,-37.900,-4.689,-6.642,-20.317,-1.954,-38.291,68.376,-7.033,4.689,33.211,6.642,-46.496,32.821,35.946,15.629,50.403,-28.913,31.648,23.443,-46.496
'[02:13:35.363 07/11/2076]',57.436,-16.410,-53.138,-34.383,-3.516,-10.940,-31.258,-1.954,-33.993,53.919,-19.927,5.861,31.648,-4.689,-49.231,27.741,30.085,0.391,53.919,-22.271,25.788,22.271,-49.231
'[02:13:35.367 07/11/2076]',56.264,-25.397,-52.357,-35.946,-1.954,-13.675,-33.993,-7.033,-35.165,44.542,-9.768,-1.563,33.993,-23.834,-46.105,33.211,30.085,-7.814,53.138,-7.814,21.880,4.689,-46.105
'[02:13:35.371 07/11/2076]',53.529,-33.993,-48.059,-38.681,-1.954,-18.364,-35.946,-10.940,-35.946,34.774,-6.642,-1.563,31.648,-37.118,-39.072,35.165,25.397,-16.020,48.840,1.563,16.801,-5.470,-39.072
'[02:13:35.375 07/11/2076]',48.059,-44.933,-48.449,-30.867,-4.689,-28.523,-39.463,-3.516,-36.337,26.178,-25.788,33.211,25.788,-44.151,-34.383,50.403,19.536,-23.443,49.231,5.079,10.549,-4.298,-34.383
'[02:13:35.379 07/11/2076]',42.979,-55.873,-46.886,-25.397,-6.642,-38.291,-41.026,0.391,-32.430,19.927,-40.635,44.933,17.582,-50.403,-25.006,50.403,13.284,-28.523,47.668,7.033,6.642,-5.470,-25.006
'[02:13:35.383 07/11/2076]',35.556,-61.343,-45.324,-23.443,-8.205,-47.277,-39.463,0.391,-24.615,10.940,-44.933,24.615,6.252,-51.184,-12.503,24.615,2.735,-30.476,46.105,8.205,-1.954,-2.735,-12.503
'[02:13:35.387 07/11/2076]',31.648,-66.813,-47.277,-18.364,-10.159,-54.310,-39.072,2.735,-13.675,4.689,-46.886,30.085,1.172,-52.357,0.000,25.397,-3.126,-32.430,48.059,8.987,-12.503,0.781,0.000
'[02:13:35.391 07/11/2076]',28.913,-75.409,-48.059,-10.549,-9.377,-60.171,-39.072,3.126,-3.516,-1.172,-49.231,45.714,-1.563,-66.032,14.457,44.151,-5.861,-34.774,48.840,12.503,-27.350,-2.735,14.457
'[02:13:35.395 07/11/2076]',23.834,-77.363,-49.621,-9.377,-7.033,-64.078,-40.635,-0.781,5.861,-7.814,-51.184,26.960,-10.940,-75.800,29.695,30.867,-12.112,-35.165,50.403,9.768,-40.244,-5.079,29.695
'[02:13:35.398 07/11/2076]',19.145,-78.535,-52.747,-5.470,-4.298,-66.422,-41.807,-5.079,19.927,-12.894,-64.078,15.238,-21.490,-80.879,44.933,16.020,-15.238,-36.728,53.529,3.126,-49.621,-4.689,44.933
'[02:13:35.402 07/11/2076]',17.973,-82.833,-53.529,3.126,0.781,-68.767,-41.807,-5.470,32.039,-19.536,-66.032,42.979,-20.317,-104.322,57.827,56.264,-14.457,-39.853,54.310,3.907,-60.952,-14.457,57.827
'[02:13:35.406 07/11/2076]',16.801,-85.177,-53.529,9.768,7.424,-70.720,-41.416,-7.424,46.105,-30.085,-64.860,57.436,-19.145,-129.719,69.939,87.521,-15.238,-46.105,54.310,0.391,-67.204,-25.397,69.939
'[02:13:35.410 07/11/2076]',10.549,-81.661,-52.747,11.331,11.722,-72.283,-39.072,-12.112,64.078,-38.291,-78.535,27.350,-29.695,-130.891,74.237,60.562,-17.582,-57.045,53.529,-14.066,-64.860,-19.927,74.237
'[02:13:35.414 07/11/2076]',3.907,-78.926,-53.529,17.973,13.675,-78.144,-35.946,-10.159,80.098,-46.105,-95.726,8.987,-37.900,-130.501,74.628,41.026,-17.582,-67.595,54.310,-30.085,-55.092,-16.801,74.628
'[02:13:35.418 07/11/2076]',5.079,-81.270,-51.966,22.662,19.927,-79.707,-33.602,-11.331,90.256,-55.092,-92.991,32.821,-29.304,-145.348,76.190,73.065,-17.973,-74.628,52.747,-27.741,-52.747,-23.834,76.190
'[02:13:35.422 07/11/2076]',3.907,-81.270,-50.012,23.834,25.397,-80.879,-34.383,-13.284,100.806,-65.250,-91.038,36.337,-23.834,-148.864,69.548,84.005,-27.350,-79.707,50.794,-24.615,-47.277,-26.569,69.548
'[02:13:35.426 07/11/2076]',0.391,-76.972,-54.310,26.960,28.132,-81.270,-42.979,-7.033,111.355,-79.316,-114.872,41.026,-26.960,-138.706,50.794,71.893,-45.714,-88.694,55.092,-28.913,-41.807,-13.284,50.794
'[02:13:35.430 07/11/2076]',-3.907,-74.237,-54.310,29.695,31.258,-85.568,-48.059,-1.172,119.560,-95.336,-132.063,49.621,-23.053,-137.143,31.648,70.330,-62.125,-95.726,55.092,-32.039,-32.039,-7.424,31.648
'[02:13:35.434 07/11/2076]',-5.470,-71.893,-52.357,28.913,32.039,-85.958,-46.886,0.000,125.421,-108.230,-121.905,31.648,-11.331,-144.176,11.331,70.720,-75.800,-96.899,53.138,-25.397,-17.582,-17.192,11.331
'[02:13:35.438 07/11/2076]',-9.377,-69.548,-50.794,27.741,30.085,-88.303,-44.542,0.391,131.673,-121.514,-120.342,19.536,-0.391,-147.302,-11.722,69.548,-86.740,-100.415,51.575,-25.006,1.954,-21.099,-11.722
'[02:13:35.441 07/11/2076]',-14.066,-69.939,-50.403,32.430,28.913,-92.991,-45.714,6.252,135.580,-132.454,-137.143,40.635,10.549,-149.646,-33.993,80.098,-97.680,-103.541,51.184,-24.615,17.582,-16.801,-33.993
'[02:13:35.445 07/11/2076]',-19.145,-72.674,-49.231,35.165,31.258,-99.634,-48.449,10.159,137.534,-139.878,-147.692,37.118,18.755,-149.255,-51.966,70.720,-110.183,-109.792,50.012,-20.708,34.383,-14.066,-51.966
'[02:13:35.449 07/11/2076]',-29.304,-73.455,-46.105,35.165,30.085,-108.620,-49.231,12.894,137.924,-148.083,-152.772,12.112,19.927,-143.785,-67.595,41.416,-125.812,-114.481,46.886,-17.973,52.747,-8.987,-67.595
'[02:13:35.453 07/11/2076]',-35.165,-76.972,-41.807,38.681,30.476,-117.998,-49.231,19.536,136.361,-154.725,-155.116,20.317,27.350,-141.832,-78.144,39.072,-138.315,-116.825,42.589,-12.894,69.158,-5.079,-78.144
'[02:13:35.457 07/11/2076]',-38.291,-83.614,-35.165,40.635,32.039,-122.295,-48.840,20.708,131.673,-160.977,-143.394,30.476,37.118,-147.302,-82.442,50.403,-146.911,-117.607,35.946,-2.344,82.051,-11.331,-82.442
'[02:13:35.461 07/11/2076]',-42.979,-83.223,-30.085,36.728,32.430,-122.686,-45.324,14.847,128.938,-166.838,-134.799,8.205,40.635,-143.394,-88.694,26.960,-153.553,-116.825,30.867,1.954,91.819,-12.503,-88.694
'[02:13:35.465 07/11/2076]',-46.886,-81.270,-26.960,38.291,33.211,-122.295,-44.542,15.629,125.031,-172.308,-138.706,-2.735,40.635,-135.580,-96.117,1.563,-158.242,-114.481,27.741,1.172,103.541,-8.987,-96.117
'[02:13:35.469 07/11/2076]',-46.105,-84.786,-22.662,44.151,33.993,-120.733,-43.370,18.755,115.653,-174.261,-130.891,30.476,50.012,-143.785,-98.852,33.602,-157.070,-110.183,23.443,9.768,106.276,-16.410,-98.852
'[02:13:35.473 07/11/2076]',-48.449,-84.396,-14.457,49.231,31.648,-117.216,-38.291,24.225,106.276,-173.871,-119.560,48.840,57.045,-150.037,-100.806,55.482,-155.897,-103.150,15.238,16.020,112.918,-23.443,-100.806
'[02:13:35.477 07/11/2076]',-59.780,-77.363,-11.331,53.529,24.225,-117.216,-35.946,32.430,99.634,-172.698,-138.706,28.132,42.198,-131.282,-105.495,10.159,-159.414,-103.150,12.112,1.563,131.282,-10.549,-105.495
'[02:13:35.480 07/11/2076]',-66.032,-74.237,-7.424,51.575,18.755,-114.090,-34.774,32.821,93.382,-169.573,-137.534,25.788,38.681,-124.640,-105.495,3.126,-156.679,-100.415,8.205,3.126,136.752,-10.159,-105.495
'[02:13:35.484 07/11/2076]',-65.250,-75.800,-2.344,49.621,15.238,-107.057,-33.211,29.304,83.223,-164.493,-113.700,38.291,45.324,-135.580,-100.806,34.774,-147.692,-96.508,3.126,19.927,131.282,-25.788,-100.806
'[02:13:35.488 07/11/2076]',-63.687,-77.363,-2.735,47.668,13.284,-96.117,-37.900,23.834,75.409,-159.805,-100.415,42.198,44.933,-140.659,-96.508,50.012,-138.315,-98.071,3.516,32.821,118.779,-33.602,-96.508
'[02:13:35.492 07/11/2076]',-67.204,-76.581,-3.126,51.184,7.033,-86.349,-43.370,25.397,68.767,-152.381,-111.355,53.138,35.556,-129.328,-94.945,46.886,-128.156,-101.197,3.907,32.821,106.667,-22.271,-94.945
'[02:13:35.496 07/11/2076]',-69.939,-75.018,-2.344,58.608,-0.391,-78.926,-40.635,30.476,58.217,-140.659,-114.872,64.078,28.132,-119.170,-88.303,47.668,-116.044,-93.773,3.126,32.430,95.336,-13.675,-88.303
'[02:13:35.500 07/11/2076]',-71.111,-69.939,3.907,61.343,-10.549,-66.422,-29.695,31.258,46.496,-126.593,-92.210,46.886,24.225,-110.574,-76.581,38.291,-104.322,-76.581,-3.126,33.993,91.429,-14.457,-76.581
'[02:13:35.504 07/11/2076]',-70.720,-64.078,13.675,64.469,-20.708,-55.482,-17.582,37.118,41.026,-112.918,-76.190,44.933,24.615,-98.852,-63.297,35.556,-92.210,-58.217,-12.894,33.602,90.647,-10.549,-63.297
'[02:13:35.508 07/11/2076]',-67.595,-60.562,21.099,71.893,-29.695,-46.105,-8.596,49.621,37.509,-101.197,-70.720,76.972,31.258,-91.819,-53.529,57.827,-81.270,-39.463,-20.317,35.556,88.694,-6.252,-53.529
'[02:13:35.512 07/11/2076]',-63.687,-56.654,30.085,75.018,-37.900,-35.165,-1.563,59.389,35.556,-89.084,-67.985,84.786,37.509,-84.396,-45.714,56.654,-71.893,-26.178,-29.304,36.728,88.303,-3.126,-45.714
'[02:13:35.516 07/11/2076]',-59.389,-49.231,37.509,77.753,-42.979,-25.788,4.689,68.767,38.291,-80.098,-70.330,79.707,41.807,-71.893,-42.198,40.244,-62.906,-15.629,-36.728,32.821,91.429,3.516,-42.198
'[02:13:35.520 07/11/2076]',-51.966,-43.370,42.979,80.488,-47.277,-14.457,10.549,79.316,39.463,-71.893,-67.204,103.541,54.310,-63.687,-42.979,57.045,-51.575,-6.252,-42.198,33.211,93.382,7.424,-42.979
'[02:13:35.523 07/11/2076]',-42.198,-38.681,48.059,84.005,-49.621,-3.516,15.629,87.131,38.681,-62.125,-56.264,120.733,68.376,-59.389,-44.151,76.581,-39.463,1.172,-47.277,37.900,94.554,5.470,-44.151
'[02:13:35.527 07/11/2076]',-35.946,-30.867,50.403,84.786,-48.840,5.079,17.192,94.164,41.416,-51.184,-56.654,99.634,73.065,-44.151,-47.277,52.357,-26.960,1.563,-49.621,34.383,100.415,11.722,-47.277
'[02:13:35.531 07/11/2076]',-30.867,-25.006,51.966,87.131,-46.496,7.033,19.536,101.978,45.324,-37.118,-62.515,87.521,75.018,-25.006,-48.059,30.867,-9.377,-1.563,-51.184,28.132,105.495,22.271,-48.059
'[02:13:35.535 07/11/2076]',-20.708,-26.178,54.701,94.164,-43.761,8.987,24.615,110.183,43.761,-17.973,-51.966,116.435,89.084,-18.755,-42.198,61.734,12.112,-0.781,-53.919,34.383,105.104,21.099,-42.198
'[02:13:35.539 07/11/2076]',-16.410,-29.304,57.436,105.104,-41.807,6.252,28.132,123.468,40.635,-0.781,-48.840,141.441,94.554,-3.126,-37.118,79.707,27.350,-2.344,-56.654,31.258,108.230,29.304,-37.118
'[02:13:35.543 07/11/2076]',-14.066,-22.271,60.562,100.415,-37.509,7.424,31.258,120.733,41.026,14.847,-46.105,110.574,88.303,25.006,-32.039,39.072,34.774,0.000,-59.780,21.099,111.746,42.198,-32.039
'[02:13:35.547 07/11/2076]',-11.331,-19.927,60.562,99.243,-33.602,10.159,30.867,119.170,39.463,32.039,-43.761,95.726,86.740,50.012,-28.132,16.020,41.026,6.642,-59.780,18.364,109.792,53.529,-28.132
'[02:13:35.551 07/11/2076]',-2.735,-25.788,57.045,105.104,-30.476,13.675,27.741,120.342,32.039,48.059,-17.192,96.117,96.117,49.621,-25.006,39.463,48.449,14.066,-56.264,32.430,100.806,43.761,-25.006
'[02:13:35.555 07/11/2076]',0.781,-28.523,56.264,101.197,-25.788,14.457,26.178,113.309,28.132,62.906,3.907,79.316,103.541,57.827,-25.006,40.244,57.827,16.410,-55.482,40.244,99.634,43.761,-25.006
'[02:13:35.559 07/11/2076]',-0.391,-33.211,48.449,102.759,-26.178,11.331,18.755,112.137,24.615,75.409,-8.987,88.694,101.197,74.237,-32.039,37.900,62.906,12.112,-47.668,37.900,97.680,57.436,-32.039
'[02:13:35.563 07/11/2076]',-5.470,-39.072,42.589,105.104,-27.350,4.298,14.066,110.965,20.708,80.098,-16.020,91.038,100.024,83.223,-41.026,35.946,64.860,9.768,-41.807,39.072,98.071,66.422,-41.026
'[02:13:35.566 07/11/2076]',-10.940,-43.370,39.072,97.680,-25.397,-5.470,14.066,98.852,15.629,78.144,-1.172,60.562,95.726,87.912,-46.886,17.192,62.125,6.642,-38.291,37.900,102.369,64.078,-46.886
'[02:13:35.570 07/11/2076]',-16.020,-48.059,35.165,92.601,-19.927,-15.629,12.112,87.912,13.284,68.376,6.252,51.575,89.475,87.131,-51.575,16.801,55.873,5.079,-34.383,37.900,101.197,60.952,-51.575
'[02:13:35.574 07/11/2076]',-20.317,-58.999,31.258,95.336,-15.238,-29.304,7.424,83.223,8.596,55.873,9.768,72.283,84.786,73.846,-52.357,42.198,50.403,3.516,-30.476,43.761,91.429,53.919,-52.357
'[02:13:35.578 07/11/2076]',-25.006,-68.376,28.913,94.164,-9.768,-42.589,4.298,77.753,3.907,45.324,16.020,65.641,73.065,64.469,-48.059,42.979,43.370,1.954,-28.132,42.589,83.223,48.449,-48.059
'[02:13:35.582 07/11/2076]',-32.430,-73.455,26.178,91.819,-3.516,-56.654,0.391,71.111,1.563,38.291,10.940,51.575,53.529,64.860,-42.198,28.132,38.291,0.000,-25.397,37.118,71.502,51.575,-42.198
'[02:13:35.586 07/11/2076]',-35.556,-81.270,22.662,89.475,2.735,-69.939,-4.298,65.641,-1.954,32.430,12.894,74.628,42.979,53.529,-33.993,56.264,35.946,-2.344,-21.880,39.463,53.529,46.886,-33.993
'[02:13:35.590 07/11/2076]',-35.946,-92.601,18.755,86.740,9.377,-84.005,-9.377,59.389,-10.940,26.569,26.960,92.210,31.648,38.681,-24.225,89.475,30.867,-4.689,-17.973,41.807,33.993,37.900,-24.225
'[02:13:35.594 07/11/2076]',-41.416,-96.117,13.675,75.800,17.192,-100.415,-14.457,48.840,-14.847,21.880,27.350,66.422,7.814,40.635,-16.410,69.158,24.225,-10.940,-12.894,31.258,17.582,38.291,-16.410
'[02:13:35.598 07/11/2076]',-48.449,-99.243,9.377,70.330,23.443,-116.825,-17.582,42.589,-16.801,16.801,21.490,55.092,-16.410,46.496,-8.205,55.873,19.145,-18.364,-8.596,21.099,0.391,43.370,-8.205
'[02:13:35.602 07/11/2076]',-47.668,-111.355,7.814,73.455,29.304,-132.845,-17.973,42.198,-26.960,11.722,40.244,93.773,-25.397,30.085,3.907,111.355,19.927,-20.708,-7.033,25.397,-16.801,28.523,3.907
'[02:13:35.605 07/11/2076]',-53.138,-114.090,5.470,69.158,35.556,-144.567,-17.973,33.993,-26.569,7.033,45.324,89.866,-43.761,28.523,17.192,114.090,16.801,-25.006,-4.689,22.662,-33.602,25.006,17.192
'[02:13:35.609 07/11/2076]',-62.906,-110.965,1.563,62.906,40.244,-150.427,-23.834,23.443,-19.927,1.563,30.476,70.720,-71.502,40.244,26.569,87.912,8.596,-32.430,-0.781,11.722,-50.403,34.774,26.569
'[02:13:35.613 07/11/2076]',-66.422,-111.746,-4.298,60.562,48.840,-155.116,-30.085,12.894,-10.940,-7.033,22.662,66.032,-89.866,36.337,37.509,86.349,1.954,-35.946,5.079,11.331,-71.502,34.774,37.509
'[02:13:35.617 07/11/2076]',-67.204,-116.044,-5.470,55.873,55.092,-158.242,-30.867,0.391,-2.735,-16.020,37.509,55.873,-99.243,17.973,54.701,100.806,-0.391,-39.072,6.252,18.755,-85.568,16.410,54.701
'[02:13:35.621 07/11/2076]',-69.548,-115.263,-3.516,50.794,62.125,-159.805,-28.132,-11.722,9.768,-25.006,45.714,48.449,-110.183,6.642,72.674,109.402,-5.470,-43.370,4.298,17.973,-96.508,8.987,72.674
'[02:13:35.625 07/11/2076]',-75.409,-114.481,-3.126,56.264,65.641,-162.149,-27.350,-12.503,21.880,-32.821,26.178,73.065,-123.858,1.954,84.786,125.031,-11.722,-49.621,3.907,12.894,-103.541,13.284,84.786
'[02:13:35.629 07/11/2076]',-82.833,-110.965,-0.391,59.389,68.767,-164.493,-23.834,-15.238,34.774,-39.853,12.112,76.972,-135.189,-5.079,99.243,126.203,-19.145,-55.482,1.172,7.424,-102.759,12.503,99.243
'[02:13:35.633 07/11/2076]',-92.210,-104.322,3.126,54.701,71.502,-166.056,-19.536,-24.225,50.012,-48.449,11.331,46.105,-148.474,-8.987,109.011,107.839,-33.602,-56.654,-2.344,1.954,-99.634,10.940,109.011
'[02:13:35.637 07/11/2076]',-101.197,-98.071,5.470,52.747,73.065,-166.447,-16.410,-30.867,60.562,-56.654,6.642,42.198,-157.460,-16.020,114.090,113.309,-47.668,-54.701,-4.689,-0.391,-95.726,8.205,114.090
'[02:13:35.641 07/11/2076]',-107.448,-94.554,7.424,52.357,73.455,-163.712,-12.894,-37.509,66.813,-63.687,2.735,53.529,-162.149,-30.867,119.951,133.626,-61.734,-48.449,-6.642,-0.391,-91.819,0.391,119.951
'[02:13:35.645 07/11/2076]',-111.746,-89.084,8.205,45.324,73.846,-160.195,-9.768,-50.012,73.065,-68.376,0.781,30.867,-170.354,-38.681,124.249,121.905,-75.800,-41.416,-7.424,-5.861,-87.131,-5.079,124.249
'[02:13:35.648 07/11/2076]',-117.607,-79.707,7.424,39.463,73.065,-152.381,-8.205,-62.125,76.581,-70.330,-12.894,12.894,-182.076,-46.105,128.547,106.276,-84.005,-37.118,-6.642,-13.284,-89.475,-5.470,128.547
'[02:13:35.652 07/11/2076]',-117.998,-76.581,6.642,39.072,71.893,-144.957,-7.033,-67.595,75.800,-69.939,-13.284,33.602,-181.685,-64.078,134.799,137.143,-86.349,-32.821,-5.861,-12.894,-91.819,-14.457,134.799
'[02:13:35.656 07/11/2076]',-117.607,-75.800,7.033,39.463,71.502,-143.785,-5.861,-68.767,73.065,-71.893,-5.861,43.761,-180.122,-81.270,140.659,160.977,-89.084,-32.430,-6.252,-10.940,-88.694,-26.569,140.659
'[02:13:35.660 07/11/2076]',-123.077,-70.720,5.861,32.821,69.548,-146.911,-5.079,-71.893,71.111,-77.753,-11.722,12.894,-190.281,-82.442,139.487,127.766,-92.991,-38.681,-5.079,-18.755,-79.316,-26.569,139.487
'[02:13:35.664 07/11/2076]',-128.938,-67.204,4.689,31.258,64.078,-154.335,-3.126,-66.422,66.422,-83.223,-21.490,-2.735,-194.579,-80.879,131.282,103.541,-96.899,-41.026,-3.907,-27.350,-63.687,-25.397,131.282
'[02:13:35.668 07/11/2076]',-123.858,-67.985,5.861,27.350,60.952,-154.335,0.000,-65.250,59.780,-88.694,-13.284,21.099,-178.950,-97.289,121.123,134.017,-95.336,-37.509,-5.079,-17.582,-55.482,-37.509,121.123
'[02:13:35.672 07/11/2076]',-117.216,-66.032,2.735,20.317,57.436,-148.083,-3.126,-67.204,56.654,-98.852,-10.549,31.258,-162.540,-114.872,107.448,148.864,-93.382,-36.728,-1.954,-9.377,-53.529,-48.059,107.448
'[02:13:35.676 07/11/2076]',-117.998,-60.171,-3.126,16.410,50.012,-137.143,-12.503,-65.641,55.092,-109.792,-34.774,34.383,-159.023,-117.998,87.131,135.580,-94.945,-42.198,3.907,-11.722,-52.747,-39.853,87.131
'[02:13:35.680 07/11/2076]',-118.388,-58.217,-7.033,17.192,38.291,-126.203,-19.145,-60.171,51.575,-119.560,-51.575,45.324,-153.553,-123.077,73.065,130.110,-94.554,-47.668,7.814,-10.549,-48.059,-37.900,73.065
'[02:13:35.684 07/11/2076]',-116.044,-57.827,-10.549,14.457,26.960,-115.653,-22.271,-58.608,41.416,-129.719,-38.291,37.118,-144.567,-137.143,62.515,129.719,-91.429,-50.794,11.331,2.344,-41.026,-53.529,62.515
'[02:13:35.688 07/11/2076]',-116.044,-57.827,-11.722,8.987,14.847,-108.620,-26.178,-56.264,32.039,-137.924,-34.774,32.430,-139.096,-139.878,49.231,122.295,-91.819,-58.999,12.503,7.033,-31.648,-56.654,49.231
'[02:13:35.691 07/11/2076]',-115.653,-59.780,-15.238,7.814,0.391,-102.369,-32.821,-47.668,21.490,-141.832,-50.794,61.343,-134.408,-135.971,33.211,127.375,-94.164,-63.297,16.020,8.987,-25.006,-48.449,33.211
'[02:13:35.695 07/11/2076]',-111.746,-57.436,-19.927,3.907,-10.940,-94.945,-36.728,-41.807,11.331,-140.269,-58.999,67.985,-128.938,-128.938,20.317,117.998,-93.382,-64.469,20.708,11.722,-19.145,-43.370,20.317
'[02:13:35.699 07/11/2076]',-110.574,-53.919,-22.271,-1.954,-23.834,-88.303,-36.728,-39.463,3.126,-133.626,-62.125,47.277,-126.984,-115.263,7.033,90.647,-92.601,-64.469,23.053,11.722,-13.675,-34.774,7.033
'[02:13:35.703 07/11/2076]',-108.230,-52.357,-21.880,-3.516,-35.556,-81.661,-35.165,-34.383,-2.735,-119.560,-67.595,54.310,-119.170,-103.150,-0.391,87.521,-82.833,-67.204,22.662,13.675,-8.205,-25.397,-0.391
'[02:13:35.707 07/11/2076]',-103.541,-52.357,-19.927,-1.954,-43.370,-71.893,-31.258,-31.648,-7.033,-101.197,-61.734,64.078,-104.713,-96.117,-0.391,95.336,-67.204,-67.985,20.708,21.490,-2.735,-23.834,-0.391
'[02:13:35.711 07/11/2076]',-98.852,-50.403,-17.973,-6.642,-47.277,-61.343,-30.867,-35.165,-9.377,-80.098,-60.171,33.993,-99.634,-79.707,-0.781,65.250,-51.575,-73.846,18.755,27.741,0.391,-19.145,-0.781
'[02:13:35.715 07/11/2076]',-96.899,-48.059,-18.364,-8.205,-50.403,-53.138,-32.430,-35.946,-8.205,-58.608,-72.283,8.596,-98.462,-57.045,0.391,25.397,-35.556,-79.707,19.145,25.788,6.252,-6.252,0.391
'[02:13:35.719 07/11/2076]',-87.912,-50.012,-14.847,-4.298,-51.184,-44.151,-29.304,-33.602,-8.596,-37.118,-70.720,31.648,-86.349,-47.668,5.861,42.979,-16.410,-78.535,15.629,29.695,10.159,-3.516,5.861
'[02:13:35.723 07/11/2076]',-81.270,-49.621,-9.377,-4.298,-54.701,-34.774,-24.225,-30.867,-10.159,-17.973,-63.687,38.681,-76.972,-35.556,12.894,46.886,-2.735,-74.237,10.159,31.258,17.582,-1.563,12.894
'[02:13:35.727 07/11/2076]',-82.833,-41.416,-4.689,-7.814,-61.343,-27.350,-19.927,-28.523,-7.814,-0.391,-78.926,5.079,-85.568,-1.954,16.410,-12.503,5.861,-74.237,5.470,12.894,32.039,17.973,16.410
'[02:13:35.730 07/11/2076]',-76.581,-33.993,1.563,-13.284,-61.343,-17.582,-11.722,-31.258,-5.470,14.066,-77.363,3.126,-80.879,13.284,24.225,-21.880,19.536,-69.158,-0.781,6.642,34.774,26.178,24.225
'[02:13:35.734 07/11/2076]',-63.687,-31.648,10.159,-17.192,-58.999,-4.298,-4.689,-34.774,-7.033,30.476,-52.357,17.192,-64.078,7.814,34.383,8.596,31.648,-57.045,-9.377,16.801,28.913,13.675,34.383
'[02:13:35.738 07/11/2076]',-51.575,-28.523,13.675,-22.662,-52.747,7.814,-3.516,-41.416,-9.768,40.635,-36.337,19.927,-55.873,6.642,38.681,25.006,36.337,-45.324,-12.894,21.490,17.582,8.987,38.681
'[02:13:35.742 07/11/2076]',-48.449,-24.615,16.801,-24.225,-49.231,15.629,-2.344,-44.933,-11.722,50.794,-47.277,29.304,-60.562,20.317,35.556,25.006,35.556,-38.291,-16.020,12.894,11.722,21.099,35.556
'[02:13:35.746 07/11/2076]',-45.324,-23.834,23.053,-21.880,-44.933,22.271,0.391,-46.496,-16.410,58.608,-51.184,35.946,-62.906,28.132,36.728,24.615,32.821,-26.178,-22.271,3.907,11.331,28.913,36.728
'[02:13:35.750 07/11/2076]',-43.761,-23.443,33.602,-22.271,-41.807,28.913,8.596,-52.747,-27.741,63.687,-24.225,20.317,-64.078,32.430,42.979,19.927,35.556,-12.112,-32.821,3.516,16.410,22.271,42.979
'[02:13:35.754 07/11/2076]',-42.198,-22.271,43.761,-21.099,-38.681,37.118,17.192,-59.389,-35.165,67.204,-0.781,18.755,-62.125,39.463,50.012,23.053,42.589,-3.126,-42.979,-0.781,21.880,23.443,50.012
'[02:13:35.758 07/11/2076]',-38.681,-23.053,50.403,-14.457,-33.211,44.151,23.053,-61.734,-42.589,69.548,4.298,52.357,-56.654,38.291,53.919,48.059,52.747,3.126,-49.621,-3.516,23.443,25.397,53.919
'[02:13:35.762 07/11/2076]',-36.337,-24.615,55.482,-11.722,-27.741,48.840,25.006,-65.641,-49.621,69.158,11.722,60.952,-53.919,37.900,55.482,53.138,60.171,10.549,-54.701,-4.689,24.225,25.397,55.482
'[02:13:35.766 07/11/2076]',-38.291,-25.006,58.608,-9.377,-23.443,50.403,27.741,-71.502,-53.919,66.813,13.675,51.575,-58.608,43.370,51.575,41.416,63.297,15.238,-57.827,-10.549,27.741,30.476,51.575
'[02:13:35.770 07/11/2076]',-40.244,-29.304,62.515,-6.642,-19.145,49.621,30.476,-76.581,-60.562,63.297,15.238,68.767,-57.827,40.244,46.105,58.217,61.343,22.662,-61.734,-11.722,31.648,30.867,46.105
'[02:13:35.773 07/11/2076]',-42.198,-38.681,69.939,-2.735,-16.801,50.403,31.258,-79.316,-67.985,57.436,30.867,83.223,-52.747,30.867,43.761,82.833,55.092,35.165,-69.158,-2.735,33.211,24.225,43.761
'[02:13:35.777 07/11/2076]',-50.794,-42.979,76.190,1.954,-19.927,50.012,35.165,-82.051,-74.628,55.482,41.026,62.515,-57.045,37.118,42.198,62.125,46.105,49.231,-75.409,-4.298,39.853,30.085,42.198
'[02:13:35.781 07/11/2076]',-60.952,-43.370,83.223,7.033,-26.178,50.403,42.979,-82.051,-78.926,58.608,42.198,52.357,-61.734,51.184,42.589,42.589,41.416,66.422,-82.442,-11.331,46.886,41.416,42.589
'[02:13:35.785 07/11/2076]',-66.032,-48.059,88.303,14.457,-35.556,53.138,51.575,-81.270,-84.786,66.032,54.701,83.223,-53.138,48.840,46.105,78.535,46.886,86.349,-87.521,-7.033,48.059,40.635,46.105
'[02:13:35.789 07/11/2076]',-73.846,-51.966,91.038,21.490,-45.324,52.357,57.045,-78.535,-90.647,73.846,59.780,107.057,-53.138,53.138,47.668,100.806,50.403,97.680,-90.256,-8.205,47.277,45.324,47.668
'[02:13:35.793 07/11/2076]',-82.442,-45.324,91.429,11.722,-52.747,53.529,60.952,-87.131,-94.554,82.051,52.357,71.502,-64.860,67.204,47.277,61.734,51.184,99.634,-90.647,-18.755,47.277,51.575,47.277
'[02:13:35.797 07/11/2076]',-86.349,-42.979,87.131,2.344,-58.608,54.310,58.217,-94.554,-100.024,87.521,44.151,55.092,-72.674,69.939,46.886,42.589,51.184,98.071,-86.349,-22.662,39.072,52.747,46.886
'[02:13:35.801 07/11/2076]',-80.879,-48.059,83.614,-1.172,-60.952,55.482,55.482,-98.071,-110.965,89.084,67.985,58.999,-66.422,50.794,51.966,68.767,49.231,102.369,-82.833,-5.861,20.708,33.211,51.966
'[02:13:35.805 07/11/2076]',-74.237,-48.449,80.879,-9.768,-60.952,55.092,53.919,-101.978,-117.607,90.256,81.661,51.575,-65.250,44.151,59.780,68.376,41.416,106.667,-80.098,-1.172,8.596,25.006,59.780
'[02:13:35.809 07/11/2076]',-74.628,-47.668,73.065,-13.675,-66.422,53.919,49.231,-101.587,-120.342,92.601,64.078,64.860,-74.237,50.012,64.078,62.125,33.993,107.839,-72.283,-4.689,-3.907,32.039,64.078
'[02:13:35.813 07/11/2076]',-74.628,-48.449,66.813,-17.582,-71.502,53.138,44.933,-102.759,-121.514,93.382,53.919,69.548,-79.707,51.575,67.985,55.482,27.350,110.574,-66.032,-5.470,-14.847,36.337,67.985
'[02:13:35.816 07/11/2076]',-74.628,-46.886,61.734,-30.085,-73.455,50.794,42.589,-112.137,-121.123,94.945,57.827,35.165,-85.568,51.184,72.283,29.304,21.490,104.322,-60.952,-4.298,-21.099,30.085,72.283
'[02:13:35.820 07/11/2076]',-76.190,-46.105,54.701,-46.105,-73.065,45.714,37.900,-125.421,-120.342,92.210,54.701,14.066,-92.210,43.761,69.939,19.536,14.457,90.256,-53.919,-3.126,-29.304,21.880,69.939
'[02:13:35.824 07/11/2076]',-74.628,-47.277,46.496,-56.264,-71.502,42.979,27.741,-132.845,-120.342,88.303,42.589,22.271,-92.991,30.085,67.985,28.523,4.298,78.144,-45.714,-1.563,-39.072,15.629,67.985
'[02:13:35.828 07/11/2076]',-72.674,-44.151,40.635,-69.548,-67.204,38.291,22.271,-141.441,-118.388,85.177,36.728,5.470,-94.554,23.053,69.548,10.940,-5.861,69.548,-39.853,-4.298,-44.933,10.940,69.548
'[02:13:35.832 07/11/2076]',-72.674,-35.556,35.946,-83.223,-63.297,34.774,21.099,-150.427,-111.355,82.051,26.178,-21.880,-100.415,23.443,73.846,-21.490,-17.973,67.985,-35.165,-12.112,-51.184,12.503,73.846
'[02:13:35.836 07/11/2076]',-67.204,-28.132,33.993,-89.475,-60.562,37.118,24.615,-154.725,-106.276,84.786,25.788,-7.814,-92.991,12.503,86.349,-9.768,-20.708,75.018,-33.211,-14.066,-62.515,7.814,86.349
'[02:13:35.840 07/11/2076]',-59.389,-22.271,34.383,-91.429,-56.654,40.244,29.695,-155.116,-100.806,84.005,36.337,7.033,-82.833,0.000,96.899,14.457,-20.317,82.051,-33.602,-14.066,-69.939,-1.563,96.899
'[02:13:35.844 07/11/2076]',-58.217,-12.112,32.430,-97.289,-53.919,39.463,34.774,-157.070,-92.210,83.223,33.602,-18.364,-84.005,0.781,101.197,-10.549,-21.490,82.051,-31.648,-20.708,-72.283,-5.079,101.197
'[02:13:35.848 07/11/2076]',-58.217,-6.252,31.258,-99.243,-53.529,37.118,39.853,-157.070,-87.131,82.051,22.662,-29.304,-87.912,3.126,100.415,-26.960,-21.490,82.442,-30.476,-29.304,-71.111,-5.470,100.415
'[02:13:35.852 07/11/2076]',-53.138,-6.642,33.211,-89.084,-55.092,37.900,47.668,-148.474,-87.131,80.879,32.039,16.020,-73.455,-10.940,99.243,28.913,-16.020,91.819,-32.430,-22.271,-67.985,-21.880,99.243
'[02:13:35.855 07/11/2076]',-52.747,-0.391,36.728,-89.084,-56.264,41.416,56.264,-149.255,-82.051,78.535,33.993,17.192,-69.158,-8.596,96.508,30.085,-12.503,98.462,-35.946,-23.443,-63.297,-23.834,96.508
'[02:13:35.859 07/11/2076]',-55.092,10.159,40.244,-86.740,-59.389,50.403,62.515,-146.520,-74.237,75.409,17.973,3.126,-73.846,3.907,91.429,1.563,-11.722,101.587,-39.463,-31.648,-59.780,-10.940,91.429
'[02:13:35.863 07/11/2076]',-54.310,20.317,42.198,-79.316,-62.515,61.343,67.204,-139.096,-67.595,67.595,10.549,12.112,-70.720,5.861,84.396,3.126,-11.722,109.792,-41.416,-33.602,-62.515,-5.470,84.396
'[02:13:35.867 07/11/2076]',-48.449,25.006,44.933,-72.674,-64.078,69.548,73.065,-131.673,-65.641,62.515,26.960,19.927,-58.217,-1.172,78.926,25.788,-3.516,113.700,-44.151,-24.615,-63.297,-13.675,78.926
'[02:13:35.871 07/11/2076]',-45.324,28.913,46.105,-66.032,-65.641,73.065,78.535,-122.295,-60.562,58.217,38.291,25.397,-45.324,-1.172,71.502,37.118,1.563,113.309,-45.324,-18.364,-62.515,-13.284,71.502
'[02:13:35.875 07/11/2076]',-45.714,28.132,42.198,-50.794,-69.939,67.985,80.879,-105.885,-55.092,55.482,20.317,60.562,-35.165,5.861,55.873,55.873,3.126,111.746,-41.416,-13.284,-60.562,-2.344,55.873
'[02:13:35.879 07/11/2076]',-45.324,25.397,39.853,-35.946,-71.502,62.906,82.833,-91.429,-48.449,57.436,12.112,73.455,-24.225,14.847,42.589,62.515,7.814,113.309,-39.072,-7.424,-52.747,5.861,42.589
'[02:13:35.883 07/11/2076]',-42.198,23.053,39.463,-28.523,-69.548,61.343,86.349,-87.131,-40.635,60.952,20.708,50.403,-14.457,22.662,33.602,49.621,11.331,114.481,-38.681,-2.344,-42.979,11.722,33.602
'[02:13:35.887 07/11/2076]',-38.291,17.973,36.728,-19.536,-68.376,61.734,85.568,-83.614,-34.774,61.734,23.834,50.794,-5.079,25.397,22.271,59.389,13.284,116.044,-35.946,-1.954,-29.695,13.675,22.271
'[02:13:35.891 07/11/2076]',-30.476,9.768,32.430,-9.377,-66.813,62.906,82.051,-77.753,-33.211,63.297,29.304,67.595,7.424,21.880,13.675,83.614,19.145,115.653,-31.648,-7.424,-9.768,12.503,13.675
'[02:13:35.895 07/11/2076]',-25.006,5.861,26.178,-5.861,-64.469,65.641,76.972,-77.363,-31.258,67.595,32.430,53.138,15.629,27.350,6.252,72.283,26.569,111.355,-25.397,-21.490,12.112,17.192,6.252
'[02:13:35.898 07/11/2076]',-20.708,2.735,17.192,-2.735,-63.297,63.297,70.330,-74.237,-27.350,68.376,25.788,39.072,20.317,36.728,-3.516,53.138,29.695,101.978,-16.410,-33.993,32.430,24.615,-3.516
'[02:13:35.902 07/11/2076]',-14.457,-4.298,10.940,5.861,-65.250,58.608,67.595,-63.687,-28.913,74.237,27.350,65.250,33.211,36.728,-12.112,80.488,35.556,97.289,-10.159,-30.085,43.761,27.350,-12.112
'[02:13:35.906 07/11/2076]',-11.331,-11.331,8.987,11.331,-69.939,55.873,66.422,-54.701,-29.695,78.144,35.556,79.707,44.542,38.291,-19.927,100.415,39.072,94.164,-8.205,-21.490,51.575,29.304,-19.927
'[02:13:35.910 07/11/2076]',-11.722,-10.159,7.424,9.377,-72.674,53.919,67.985,-54.310,-28.132,84.786,30.867,48.449,44.933,53.138,-28.132,66.422,38.291,92.991,-6.642,-16.020,56.264,40.635,-28.132
'[02:13:35.914 07/11/2076]',-14.457,-8.205,7.033,12.112,-76.190,52.747,68.767,-49.231,-27.350,92.210,21.099,30.476,46.105,64.860,-37.118,43.370,42.589,94.554,-6.252,-11.331,62.906,49.231,-37.118
'[02:13:35.918 07/11/2076]',-8.987,-7.424,7.814,12.503,-76.581,58.999,68.767,-48.449,-25.788,95.726,26.569,52.747,61.734,58.999,-43.370,71.502,53.919,96.117,-7.033,4.689,60.562,44.151,-43.370
'[02:13:35.922 07/11/2076]',-0.781,-5.470,4.689,9.377,-73.455,67.985,65.250,-51.575,-21.490,96.117,30.476,57.045,76.581,53.919,-52.357,84.786,60.562,94.554,-3.907,20.317,54.310,40.635,-52.357
'[02:13:35.926 07/11/2076]',3.126,-0.391,-1.172,8.987,-71.111,76.190,52.747,-47.277,-16.020,92.991,9.768,50.794,76.581,61.343,-65.641,66.032,60.562,84.396,1.954,26.178,46.886,50.403,-65.641
'[02:13:35.930 07/11/2076]',8.596,0.391,-7.424,8.987,-71.502,80.098,43.370,-41.807,-15.629,92.601,-5.470,55.092,78.144,66.422,-75.409,56.654,63.297,73.846,8.205,29.695,43.370,57.436,-75.409
'[02:13:35.934 07/11/2076]',17.192,-1.563,-10.159,7.424,-70.330,83.614,41.416,-41.026,-19.927,94.554,10.159,42.198,87.912,61.734,-79.707,57.045,70.720,69.939,10.940,41.807,44.542,44.542,-79.707
'[02:13:35.938 07/11/2076]',25.397,-1.563,-12.112,7.033,-68.376,87.131,39.853,-40.635,-25.397,101.197,19.536,33.602,92.601,63.687,-79.316,51.966,77.753,66.032,12.894,45.714,45.714,41.026,-79.316
'[02:13:35.941 07/11/2076]',31.258,-1.563,-15.629,10.549,-66.422,89.084,34.774,-32.821,-30.085,108.230,2.344,61.343,92.601,70.720,-79.316,57.827,85.958,58.999,16.410,43.370,44.542,46.105,-79.316
'[02:13:35.945 07/11/2076]',37.118,-2.344,-18.364,12.503,-66.422,89.866,32.821,-26.178,-33.602,112.527,-6.642,68.767,91.429,77.753,-80.488,51.966,95.336,55.092,19.145,46.105,42.198,46.496,-80.488
'[02:13:35.949 07/11/2076]',43.761,-0.781,-20.317,11.722,-66.032,91.038,30.476,-21.099,-35.556,117.607,-8.205,48.449,85.958,90.647,-82.051,28.132,101.978,48.059,21.099,48.840,36.728,51.184,-82.051
'[02:13:35.953 07/11/2076]',50.794,-0.391,-23.443,11.331,-64.860,93.382,24.225,-14.066,-35.165,126.593,-13.675,50.794,85.568,100.806,-82.442,24.225,110.574,38.681,24.225,53.529,30.476,55.873,-82.442
'[02:13:35.957 07/11/2076]',60.562,-4.689,-28.132,13.675,-64.078,98.462,18.364,-11.331,-34.774,137.924,-11.331,55.092,90.647,104.713,-80.879,32.039,122.295,31.648,28.913,62.906,24.225,55.092,-80.879
'[02:13:35.961 07/11/2076]',70.720,-5.861,-33.602,12.112,-58.608,103.541,13.675,-14.847,-30.476,151.990,-7.033,21.490,92.210,115.653,-77.363,4.689,134.017,26.569,34.383,67.985,18.755,56.264,-77.363
'[02:13:35.965 07/11/2076]',78.926,-6.252,-42.198,14.457,-53.919,105.885,8.987,-14.847,-23.053,167.619,-17.973,-4.689,89.084,132.454,-71.893,-28.913,141.441,23.443,42.979,66.813,13.675,65.250,-71.893
'[02:13:35.969 07/11/2076]',88.303,-12.503,-46.105,21.880,-52.357,105.885,7.814,-10.159,-20.317,181.294,-15.629,12.894,96.117,135.971,-64.860,-8.987,152.772,25.788,46.886,73.455,9.377,64.860,-64.860
'[02:13:35.973 07/11/2076]',95.726,-16.410,-46.496,27.741,-48.840,103.932,10.549,-4.689,-15.629,191.453,-5.470,18.755,102.759,139.096,-57.827,4.298,160.586,26.960,47.277,80.488,7.033,63.297,-57.827
'[02:13:35.977 07/11/2076]',93.773,-12.112,-48.059,31.258,-48.449,100.024,10.549,1.563,-6.252,199.658,-21.099,-16.801,89.866,164.103,-54.310,-43.761,162.930,20.317,48.840,66.422,13.675,81.661,-54.310
'[02:13:35.980 07/11/2076]',94.945,-7.424,-44.933,30.867,-42.589,103.150,12.894,-0.391,5.861,208.254,-21.099,-33.602,89.866,174.261,-47.668,-56.264,170.745,18.364,45.714,58.608,17.192,90.256,-47.668
'[02:13:35.984 07/11/2076]',106.276,-6.252,-39.463,33.602,-30.476,111.355,17.582,-4.689,19.145,214.115,2.735,-25.788,103.932,161.758,-32.821,-21.490,183.639,22.271,40.244,67.985,8.987,78.535,-32.821
'[02:13:35.988 07/11/2076]',117.998,-3.126,-35.946,37.900,-14.847,122.686,16.801,-7.814,35.946,215.678,20.708,-26.569,112.137,153.162,-17.582,-0.781,188.718,27.741,36.728,71.111,-1.954,73.455,-17.582
'[02:13:35.992 07/11/2076]',121.514,3.516,-33.211,42.198,-1.172,130.110,13.675,-7.814,58.608,212.552,12.894,-29.304,110.574,158.242,-7.814,-5.470,188.327,28.523,33.993,60.171,-6.252,84.396,-7.814
'[02:13:35.996 07/11/2076]',124.640,7.814,-27.741,48.059,11.331,132.063,14.066,-4.689,77.753,203.956,11.331,-26.178,109.792,155.897,4.689,-3.126,184.420,32.430,28.523,52.747,-8.205,87.912,4.689
'[02:13:36.000 07/11/2076]',125.812,14.066,-20.317,50.012,21.490,132.845,19.145,-3.516,93.773,192.625,32.821,-44.151,111.355,146.129,17.192,0.391,178.168,39.853,21.099,50.403,-5.079,76.972,17.192
'[02:13:36.004 07/11/2076]',125.421,17.973,-10.549,49.231,33.993,132.063,22.662,-5.861,112.918,176.996,44.542,-51.966,111.355,135.971,26.178,7.814,169.182,39.853,11.331,44.542,-0.781,70.330,26.178
'[02:13:36.008 07/11/2076]',126.984,19.145,-3.907,54.310,48.449,129.328,21.490,-2.344,130.110,160.195,38.291,-25.397,109.402,121.123,35.556,35.946,160.977,37.900,4.689,39.072,-2.735,66.032,35.556
'[02:13:36.012 07/11/2076]',127.375,21.490,1.954,58.217,66.032,124.249,18.364,0.391,149.646,143.004,35.556,-19.536,103.932,107.448,50.403,46.105,150.818,37.509,-1.172,31.648,-9.768,60.562,50.403
'[02:13:36.016 07/11/2076]',129.328,25.397,6.252,58.217,87.521,117.607,13.675,1.172,170.745,124.640,32.430,-33.602,92.601,94.945,64.469,41.026,138.315,31.648,-5.470,19.927,-19.145,55.873,64.469
'[02:13:36.020 07/11/2076]',132.454,28.523,11.331,56.654,109.792,110.574,8.987,1.172,187.155,105.104,30.867,-16.801,85.177,76.190,80.488,63.297,124.249,26.178,-10.549,9.768,-31.648,46.886,80.488
'[02:13:36.023 07/11/2076]',136.361,30.476,17.582,55.873,128.938,102.369,8.205,0.391,197.705,82.442,39.072,2.735,80.879,50.403,96.117,94.164,108.620,23.834,-16.801,6.642,-48.449,32.039,96.117
'[02:13:36.027 07/11/2076]',134.408,34.774,20.317,52.747,143.785,91.429,6.252,1.954,205.519,59.780,33.602,-5.079,67.204,36.728,102.759,86.349,87.131,14.847,-19.536,-5.470,-58.217,23.834,102.759
'[02:13:36.031 07/11/2076]',128.156,39.072,22.271,51.184,154.335,77.363,4.298,5.470,211.380,37.509,17.582,-4.689,53.529,28.913,102.369,76.190,69.158,6.642,-21.490,-19.927,-62.515,23.053,102.369
'[02:13:36.035 07/11/2076]',124.249,37.900,26.178,55.873,160.977,65.250,4.689,13.675,212.943,17.973,14.457,37.118,52.747,10.940,102.369,116.435,57.827,2.344,-25.397,-22.662,-66.032,13.675,102.369
'[02:13:36.039 07/11/2076]',117.607,36.728,28.523,62.515,166.838,49.231,3.126,27.350,211.770,1.172,3.907,72.674,46.496,-0.391,99.634,144.567,41.416,-3.516,-27.741,-33.993,-62.906,10.159,99.634
'[02:13:36.043 07/11/2076]',109.011,43.761,34.383,51.966,173.480,39.463,4.298,23.443,216.850,-12.894,-7.033,45.714,31.258,2.344,95.726,110.965,26.178,-9.768,-33.602,-48.059,-60.562,14.457,95.726
'[02:13:36.047 07/11/2076]',104.713,50.794,39.072,43.370,181.685,34.383,3.516,19.145,219.194,-27.741,-17.973,37.900,20.317,-0.781,93.773,96.899,13.284,-13.675,-38.291,-57.045,-66.422,15.629,93.773
'[02:13:36.051 07/11/2076]',107.057,48.449,42.589,40.635,186.764,29.695,5.079,17.582,214.896,-42.979,-3.907,51.575,23.053,-28.132,93.773,129.719,4.689,-13.675,-41.807,-48.059,-78.926,0.391,93.773
'[02:13:36.055 07/11/2076]',105.495,51.575,44.542,30.867,190.672,26.960,7.814,7.424,216.068,-58.217,5.079,47.277,23.443,-45.324,93.382,139.096,0.000,-17.192,-43.761,-47.277,-84.005,-7.814,93.382
'[02:13:36.059 07/11/2076]',97.680,57.045,40.635,27.350,189.499,23.053,3.907,6.642,218.022,-71.893,-14.457,55.482,15.238,-46.886,85.958,132.845,-5.470,-23.443,-39.853,-57.827,-85.958,4.298,85.958
'[02:13:36.063 07/11/2076]',89.475,57.827,38.681,25.788,185.592,16.801,3.907,5.470,215.287,-81.661,-29.304,57.045,8.596,-53.529,80.488,126.203,-9.768,-24.615,-37.900,-64.469,-83.223,11.722,80.488
'[02:13:36.066 07/11/2076]',80.879,60.171,39.463,16.801,179.341,12.503,8.205,-1.172,209.817,-89.866,-14.847,25.397,2.735,-63.297,80.879,109.402,-15.238,-22.662,-38.681,-66.032,-75.800,3.126,80.879
'[02:13:36.070 07/11/2076]',73.455,62.906,41.416,6.642,171.917,9.377,12.894,-7.814,202.002,-97.289,-8.596,13.284,0.391,-69.548,77.753,100.415,-21.490,-18.755,-40.635,-66.422,-70.720,0.391,77.753
'[02:13:36.074 07/11/2076]',68.376,58.999,39.463,4.689,160.195,6.252,12.894,-6.642,190.672,-105.104,-13.675,37.118,2.735,-81.270,69.158,117.607,-27.350,-13.284,-38.681,-64.078,-67.595,-1.954,69.158
'[02:13:36.078 07/11/2076]',63.297,56.264,35.946,-0.781,148.474,1.563,13.284,-7.814,180.513,-115.263,-19.145,36.728,7.424,-90.256,56.654,109.402,-34.383,-13.284,-35.165,-60.562,-56.654,-8.596,56.654
'[02:13:36.082 07/11/2076]',56.654,57.436,29.304,-10.940,134.799,-4.298,14.066,-11.331,174.652,-128.156,-33.602,21.490,8.987,-87.912,33.602,79.316,-39.463,-18.755,-28.523,-62.906,-40.244,-5.861,33.602
'[02:13:36.086 07/11/2076]',54.701,56.264,21.490,-20.708,123.077,-8.987,11.331,-11.722,166.838,-141.050,-44.933,36.337,19.145,-94.164,9.377,82.442,-43.370,-26.178,-20.708,-57.436,-27.741,-6.252,9.377
'[02:13:36.090 07/11/2076]',53.529,51.966,14.066,-29.304,105.885,-12.894,8.987,-8.987,157.851,-156.679,-42.589,50.403,30.867,-107.057,-9.768,94.945,-48.059,-33.211,-13.284,-48.449,-15.629,-14.847,-9.768
'[02:13:36.094 07/11/2076]',49.621,52.747,3.907,-40.635,87.131,-19.145,6.252,-6.252,146.911,-169.963,-50.012,23.834,30.085,-104.322,-30.085,55.092,-54.701,-41.416,-3.126,-47.668,-0.781,-13.675,-30.085
'[02:13:36.098 07/11/2076]',46.496,52.357,-5.861,-48.059,66.813,-26.569,5.079,0.391,132.454,-172.698,-61.343,8.596,28.523,-94.945,-44.151,18.755,-57.045,-45.714,6.642,-49.621,9.768,-6.642,-44.151
'[02:13:36.102 07/11/2076]',51.575,43.370,-17.973,-42.198,44.542,-33.602,6.642,16.801,110.574,-168.400,-49.621,48.059,43.761,-104.713,-51.966,53.919,-50.403,-37.509,18.755,-35.556,17.582,-17.973,-51.966
'[02:13:36.105 07/11/2076]',54.310,40.244,-26.960,-41.416,26.960,-33.602,8.596,24.615,93.773,-157.070,-46.105,44.542,51.184,-99.243,-58.217,41.807,-41.026,-31.258,27.741,-27.741,25.006,-19.536,-58.217
'[02:13:36.109 07/11/2076]',55.092,46.105,-36.728,-44.933,11.722,-28.913,10.549,25.788,80.879,-138.706,-53.138,14.457,48.059,-78.926,-62.125,-3.126,-29.304,-28.913,37.509,-30.867,30.867,-10.549,-62.125
'[02:13:36.113 07/11/2076]',61.343,49.231,-46.105,-42.979,0.391,-17.582,9.768,29.695,67.985,-125.812,-56.654,7.033,51.966,-73.846,-66.422,-18.364,-17.973,-22.271,46.886,-23.053,26.569,-9.768,-66.422
'[02:13:36.117 07/11/2076]',71.111,48.840,-50.794,-41.026,-11.722,-5.470,13.284,32.430,50.794,-113.309,-34.383,6.642,63.687,-85.177,-65.250,-3.907,-1.954,-15.629,51.575,-6.252,23.834,-29.695,-65.250
'[02:13:36.121 07/11/2076]',80.488,50.794,-53.529,-43.761,-23.053,5.470,16.801,33.993,32.039,-102.759,-19.145,5.861,72.283,-94.554,-64.078,2.344,8.596,-12.894,54.310,2.735,22.271,-45.324,-64.078
'[02:13:36.125 07/11/2076]',84.786,51.966,-58.999,-39.072,-37.509,12.503,14.457,48.449,13.675,-92.991,-33.602,36.728,73.846,-94.164,-67.985,12.112,11.722,-9.768,59.780,5.470,18.364,-47.277,-67.985
'[02:13:36.129 07/11/2076]',87.521,52.357,-61.734,-34.774,-51.184,17.582,14.847,61.734,-3.907,-82.442,-38.681,52.747,76.190,-98.071,-65.250,15.629,14.457,-1.563,62.515,9.377,18.755,-57.045,-65.250
'[02:13:36.133 07/11/2076]',91.819,54.701,-63.297,-35.556,-59.780,22.662,18.364,65.641,-19.145,-69.548,-22.271,31.258,76.972,-100.024,-57.436,0.391,15.238,6.252,64.078,13.284,17.582,-67.204,-57.436
'[02:13:36.137 07/11/2076]',95.336,53.919,-62.906,-32.821,-65.641,27.350,19.927,70.720,-30.867,-54.701,-12.112,31.258,80.879,-100.806,-48.059,1.954,16.801,15.238,63.687,19.536,17.192,-75.018,-48.059
'[02:13:36.141 07/11/2076]',98.071,48.840,-62.906,-23.443,-69.548,31.258,18.364,78.926,-39.463,-40.244,-5.079,51.966,88.303,-105.885,-37.509,21.490,23.834,21.490,63.687,28.132,14.457,-80.879,-37.509
'[02:13:36.145 07/11/2076]',101.197,44.542,-62.906,-18.755,-68.767,37.118,16.020,78.535,-42.979,-26.178,1.954,35.946,91.819,-100.415,-30.867,7.814,36.728,20.708,63.687,32.821,15.629,-80.879,-30.867
'[02:13:36.148 07/11/2076]',99.634,43.761,-62.515,-16.020,-69.158,44.542,12.503,75.800,-41.026,-12.503,-3.126,18.755,94.554,-89.475,-28.913,-14.066,49.621,18.364,63.297,31.258,20.708,-73.455,-28.913
'[02:13:36.152 07/11/2076]',101.197,40.244,-64.469,-8.596,-66.422,51.575,7.033,75.800,-41.026,1.172,-3.907,40.244,103.150,-85.568,-28.132,8.205,64.469,16.020,65.250,35.556,23.443,-71.111,-28.132
'[02:13:36.156 07/11/2076]',101.197,36.728,-66.422,-3.126,-63.687,56.654,3.516,71.893,-39.463,13.675,1.954,51.184,111.746,-81.270,-28.523,26.569,77.753,10.549,67.204,37.118,31.258,-67.985,-28.523
'[02:13:36.160 07/11/2076]',98.852,40.244,-67.595,-5.470,-57.436,61.343,0.391,62.515,-33.602,27.741,-6.642,18.364,108.620,-58.608,-34.383,-8.596,85.568,1.563,68.376,26.960,43.370,-51.575,-34.383
'[02:13:36.164 07/11/2076]',93.773,40.244,-69.939,-1.954,-50.794,55.873,-3.126,60.562,-30.476,42.979,-19.927,0.781,102.369,-35.946,-39.463,-33.211,93.382,-4.298,70.720,17.582,55.482,-35.946,-39.463
'[02:13:36.168 07/11/2076]',96.508,35.946,-69.158,-0.391,-41.416,53.919,-3.126,53.529,-27.741,54.701,-11.722,18.364,108.620,-25.788,-41.807,-5.861,107.057,-8.205,69.939,23.834,56.654,-30.085,-41.807
'[02:13:36.172 07/11/2076]',101.197,29.695,-70.720,-0.781,-27.741,54.310,-9.768,42.198,-21.880,59.780,-6.252,22.271,114.872,-17.192,-50.403,7.033,114.481,-14.847,71.502,30.867,52.357,-21.099,-50.403
'[02:13:36.176 07/11/2076]',94.945,28.132,-78.535,0.391,-17.582,50.403,-20.708,34.383,-16.410,62.125,-21.880,9.768,103.150,1.954,-57.827,-13.284,110.574,-23.443,79.316,25.788,47.277,-0.781,-57.827
'[02:13:36.180 07/11/2076]',87.521,25.788,-84.396,1.563,-8.596,45.324,-29.695,23.834,-11.331,64.860,-35.165,2.344,92.991,17.973,-64.860,-25.397,106.667,-30.085,85.177,21.490,42.589,16.801,-64.860
'[02:13:36.184 07/11/2076]',83.223,19.145,-87.521,0.781,0.391,41.807,-34.383,8.205,-9.377,66.813,-19.145,-14.457,92.601,13.284,-64.860,-18.364,105.885,-32.430,88.303,28.132,36.728,11.331,-64.860
'[02:13:36.188 07/11/2076]',74.628,16.410,-89.084,-2.735,6.642,35.556,-36.728,-7.424,-7.424,67.204,-12.112,-33.602,85.958,11.331,-62.125,-20.708,101.197,-35.556,89.866,28.523,33.993,10.159,-62.125
'[02:13:36.191 07/11/2076]',62.515,10.940,-91.819,-3.516,9.768,26.569,-41.807,-16.020,-5.861,69.158,-31.258,-20.708,72.283,15.238,-62.125,-14.457,94.554,-39.853,92.601,23.443,27.741,19.536,-62.125
'[02:13:36.195 07/11/2076]',53.529,5.861,-90.256,-5.861,14.066,19.927,-42.589,-28.523,-2.344,70.330,-39.853,-23.053,58.999,15.629,-56.264,-13.675,90.647,-42.979,91.038,21.490,19.536,23.443,-56.264
'[02:13:36.199 07/11/2076]',40.635,3.516,-89.084,-12.112,16.801,12.894,-43.370,-43.761,-0.391,71.893,-38.681,-54.310,40.244,17.582,-51.184,-28.523,84.396,-48.840,89.866,16.410,11.331,26.960,-51.184
'[02:13:36.203 07/11/2076]',26.178,-0.391,-84.396,-15.629,17.192,6.252,-42.589,-56.654,0.391,74.628,-40.635,-57.827,23.053,17.582,-43.761,-20.317,81.661,-55.873,85.177,11.722,2.344,30.476,-43.761
'[02:13:36.207 07/11/2076]',15.238,-4.689,-75.409,-17.973,20.708,4.298,-40.244,-68.767,2.735,79.707,-37.900,-49.231,15.238,10.940,-35.946,4.689,79.316,-58.999,76.190,11.722,-7.033,28.523,-35.946
'[02:13:36.211 07/11/2076]',0.391,-5.470,-68.376,-24.615,20.708,2.735,-38.681,-84.786,3.126,83.223,-34.383,-75.018,1.172,10.159,-28.523,-5.079,76.581,-62.515,69.158,8.987,-14.457,27.350,-28.523
'[02:13:36.215 07/11/2076]',-16.020,-5.861,-61.343,-27.350,19.145,0.781,-38.681,-93.773,1.954,86.740,-46.105,-94.164,-15.629,16.801,-25.397,-25.788,72.283,-66.032,62.125,2.735,-17.582,30.867,-25.397
'[02:13:36.219 07/11/2076]',-29.304,-10.549,-51.184,-24.225,13.284,-0.391,-32.039,-97.680,-1.563,92.991,-44.542,-66.813,-20.708,15.629,-21.099,6.252,70.720,-60.562,51.966,4.298,-22.271,29.304,-21.099
'[02:13:36.223 07/11/2076]',-42.979,-12.894,-40.244,-20.708,8.205,-0.391,-25.788,-100.415,-6.252,100.806,-35.165,-55.092,-29.304,16.801,-12.503,28.913,74.628,-59.389,41.026,4.689,-25.788,25.006,-12.503
'[02:13:36.227 07/11/2076]',-62.515,-8.205,-32.430,-21.880,0.391,-1.954,-21.880,-101.978,-11.331,107.839,-46.886,-86.740,-53.919,36.728,-7.814,-11.722,76.581,-63.297,33.211,-10.940,-23.834,34.383,-7.814
'[02:13:36.230 07/11/2076]',-72.674,-5.470,-22.662,-24.225,-3.126,-2.735,-15.238,-104.322,-13.675,113.700,-44.151,-89.866,-62.906,44.933,0.391,-16.020,78.535,-59.780,23.443,-15.238,-27.741,33.993,0.391
'[02:13:36.234 07/11/2076]',-73.065,-3.516,-13.284,-28.523,-5.079,3.126,-10.159,-107.448,-20.317,117.998,-19.536,-69.548,-58.608,32.430,10.940,23.053,84.786,-51.575,14.066,-5.470,-40.244,14.066,10.940
'[02:13:36.238 07/11/2076]',-70.330,-2.735,-5.470,-35.165,-5.470,10.159,-10.549,-109.402,-26.569,115.653,-2.344,-56.654,-57.827,24.615,17.973,44.933,85.958,-41.416,6.252,2.735,-57.045,3.126,17.973
'[02:13:36.242 07/11/2076]',-73.065,2.344,-1.172,-39.463,-9.768,12.503,-10.549,-103.932,-30.867,113.700,-10.940,-49.621,-64.860,35.946,14.847,34.774,80.879,-35.946,1.954,-1.954,-64.078,9.768,14.847
'[02:13:36.246 07/11/2076]',-77.363,5.470,4.689,-42.589,-16.801,13.675,-9.377,-98.071,-39.072,111.355,-17.192,-38.681,-70.720,42.589,9.768,33.993,80.879,-31.648,-3.907,-3.516,-70.330,13.284,9.768
'[02:13:36.250 07/11/2076]',-78.535,8.596,11.331,-46.496,-22.271,15.238,-4.689,-93.382,-50.403,110.574,1.954,-48.840,-71.502,44.542,6.252,33.993,84.005,-26.178,-10.549,1.172,-72.674,4.298,6.252
'[02:13:36.254 07/11/2076]',-76.190,13.675,16.801,-50.012,-27.741,15.629,0.000,-84.005,-58.608,109.402,14.847,-48.840,-66.813,51.575,-0.391,33.602,83.223,-21.880,-16.020,1.563,-69.939,0.781,-0.391
'[02:13:36.258 07/11/2076]',-73.065,16.801,17.582,-49.621,-33.993,17.973,0.391,-72.283,-64.860,109.011,5.079,-16.801,-60.562,55.482,-12.503,50.794,80.879,-17.192,-16.801,1.954,-70.720,3.907,-12.503
'[02:13:36.262 07/11/2076]',-67.595,20.317,19.145,-50.403,-36.728,17.192,-0.391,-58.217,-66.813,104.713,1.172,-4.689,-53.138,59.389,-22.662,51.184,73.455,-11.331,-18.364,1.172,-67.204,3.907,-22.662
'[02:13:36.266 07/11/2076]',-66.813,24.615,21.880,-51.184,-42.589,12.894,1.954,-43.370,-68.376,99.243,2.735,-15.629,-48.840,69.548,-31.258,29.695,62.906,-4.689,-21.099,0.781,-61.734,7.033,-31.258
'[02:13:36.270 07/11/2076]',-62.515,26.178,25.006,-50.012,-46.105,10.549,3.516,-29.304,-68.767,96.508,6.252,-0.391,-37.509,72.283,-36.337,35.946,54.310,2.735,-24.225,2.735,-58.217,9.768,-36.337
'[02:13:36.273 07/11/2076]',-58.217,24.615,28.523,-48.059,-47.277,7.033,0.781,-14.066,-71.111,88.303,17.582,18.364,-26.569,68.376,-39.463,51.184,41.416,7.033,-27.741,11.331,-58.608,5.861,-39.463
'[02:13:36.277 07/11/2076]',-54.310,23.053,28.132,-44.933,-50.012,0.781,-0.391,1.954,-72.674,80.879,21.490,4.689,-22.662,76.190,-42.198,24.225,25.397,10.940,-27.350,15.238,-57.436,10.940,-42.198
'[02:13:36.281 07/11/2076]',-51.575,24.615,27.741,-41.026,-54.701,-0.781,0.000,16.410,-71.111,77.363,10.549,-4.689,-18.755,89.866,-50.403,-7.424,14.847,17.192,-26.960,10.940,-47.277,23.443,-50.403
'[02:13:36.285 07/11/2076]',-43.370,19.927,28.523,-32.430,-57.045,-4.298,1.954,31.648,-70.720,72.283,8.205,28.132,-7.424,87.912,-57.436,15.238,8.987,24.225,-27.741,17.973,-38.291,23.834,-57.436
'[02:13:36.289 07/11/2076]',-40.635,13.675,29.695,-20.708,-60.562,-13.284,3.516,51.966,-65.641,64.078,2.735,53.138,3.907,89.475,-64.860,26.569,0.391,25.006,-28.913,18.755,-21.099,27.741,-64.860
'[02:13:36.293 07/11/2076]',-41.026,18.364,33.211,-21.880,-61.343,-14.847,6.642,57.436,-55.092,60.562,-2.344,20.317,4.298,101.978,-69.939,-12.894,-7.424,27.741,-32.430,11.331,-3.907,35.165,-69.939
'[02:13:36.297 07/11/2076]',-40.244,19.927,35.556,-21.490,-62.125,-16.020,5.470,65.250,-42.979,51.966,-10.549,11.331,9.768,103.150,-73.065,-30.085,-19.145,30.476,-34.774,10.159,3.907,39.072,-73.065
'[02:13:36.301 07/11/2076]',-31.648,13.675,35.556,-16.020,-60.171,-17.973,1.954,77.753,-37.118,36.337,6.642,32.821,27.350,80.098,-72.674,3.907,-32.821,35.165,-34.774,27.741,-0.781,21.880,-72.674
'[02:13:36.305 07/11/2076]',-26.178,11.331,36.337,-15.238,-62.125,-19.145,2.344,84.786,-34.774,26.178,19.536,34.774,39.463,67.985,-74.237,12.112,-44.933,43.761,-35.556,35.165,3.126,12.503,-74.237
'[02:13:36.309 07/11/2076]',-25.397,12.894,35.165,-9.377,-64.078,-16.801,0.000,94.945,-33.211,21.880,-0.391,51.575,37.118,75.409,-77.753,4.298,-48.059,46.496,-34.383,28.523,8.205,23.053,-77.753
'[02:13:36.313 07/11/2076]',-24.225,13.675,34.774,-1.172,-63.687,-19.145,1.954,104.322,-30.867,17.582,-12.894,64.860,37.509,82.051,-81.270,0.000,-46.886,46.496,-33.993,25.006,14.847,30.867,-81.270
'[02:13:36.316 07/11/2076]',-21.490,16.020,39.463,-1.172,-60.562,-17.973,9.377,101.978,-32.430,17.973,1.172,44.151,37.118,84.005,-78.144,-12.503,-41.416,48.840,-38.681,24.615,26.178,22.662,-78.144
'[02:13:36.320 07/11/2076]',-18.364,22.271,43.761,-1.172,-54.701,-9.768,15.238,95.726,-27.741,17.582,9.768,34.383,37.900,81.661,-71.502,-13.284,-32.821,48.449,-42.979,22.662,29.304,17.582,-71.502
'[02:13:36.324 07/11/2076]',-12.894,22.271,43.761,3.516,-50.794,-2.344,15.238,95.336,-23.443,16.020,3.126,60.171,40.635,70.720,-65.250,10.159,-25.788,43.761,-42.979,23.834,22.662,14.457,-65.250
'[02:13:36.328 07/11/2076]',-8.205,19.927,41.026,7.033,-46.886,0.391,11.331,95.726,-23.834,16.801,1.172,54.701,37.118,60.562,-57.045,8.205,-22.271,41.807,-40.244,24.225,20.317,5.861,-57.045
'[02:13:36.332 07/11/2076]',-8.205,19.927,35.165,7.033,-44.151,4.689,5.079,89.084,-24.225,23.834,-5.470,29.304,28.523,57.045,-48.059,-14.066,-15.629,35.946,-34.383,20.317,19.145,4.298,-48.059
'[02:13:36.336 07/11/2076]',-3.907,13.675,28.132,8.596,-37.900,8.987,-3.907,82.051,-23.053,32.821,-10.159,39.072,28.913,49.231,-37.509,-2.344,-5.861,28.132,-27.350,24.615,13.284,0.391,-37.509
'[02:13:36.340 07/11/2076]',-0.391,5.861,21.490,12.112,-34.774,9.377,-10.940,76.972,-27.350,37.509,-1.563,45.714,31.258,36.337,-29.695,16.801,-1.172,22.271,-20.708,32.039,12.112,-9.377,-29.695
'[02:13:36.344 07/11/2076]',-3.126,2.735,14.066,10.940,-33.602,8.987,-16.020,65.641,-27.350,40.244,-3.516,11.331,25.397,34.774,-26.178,-13.284,0.391,17.192,-13.284,30.085,17.582,-11.331,-26.178
'[02:13:36.348 07/11/2076]',-3.516,3.516,8.987,10.549,-31.648,12.112,-16.410,57.045,-22.271,42.979,-10.940,-7.814,19.145,39.072,-20.317,-35.556,6.252,14.066,-8.205,23.443,16.801,-5.470,-20.317
'[02:13:36.352 07/11/2076]',3.907,0.781,4.689,21.099,-25.006,14.847,-14.457,56.654,-21.099,48.059,-1.563,24.615,28.132,21.490,-10.159,10.159,17.973,15.238,-3.907,25.006,12.112,-14.847,-10.159
'[02:13:36.355 07/11/2076]',10.940,1.563,3.907,21.099,-15.629,19.536,-12.503,47.277,-14.457,53.919,6.642,20.708,30.867,16.410,3.516,15.238,29.695,17.192,-3.126,23.834,6.252,-18.364,3.516
'[02:13:36.359 07/11/2076]',16.020,7.424,0.391,16.410,-2.735,26.960,-16.801,34.774,-1.563,60.171,-0.391,-7.424,23.053,27.741,16.801,-18.755,35.946,12.894,0.391,12.503,-4.298,-4.298,16.801
'[02:13:36.363 07/11/2076]',24.225,8.987,-7.033,16.801,12.503,32.039,-27.741,26.178,8.987,62.906,-6.252,-15.238,22.271,30.085,24.225,-27.741,39.463,9.377,7.814,10.159,-17.582,2.735,24.225
'[02:13:36.367 07/11/2076]',32.821,0.391,-14.457,14.066,25.006,30.085,-35.946,13.284,11.722,62.515,12.112,-21.099,31.258,18.364,26.960,-12.112,44.542,1.954,15.238,20.708,-26.569,-4.298,26.960
