'Time and date','FP1-F7','F7-T7','T7-P7','P7-O1','FP1-F3','F3-C3','C3-P3','P3-O1','FP2-F4','F4-C4','C4-P4','P4-O2','FP2-F8','F8-T8','T8-P8','P8-O2','FZ-CZ','CZ-PZ','P7-T7','T7-FT9','FT9-FT10','FT10-T8','T8-P8'
'hh:mm:ss.mmm dd/mm/yyyy','uV','uV','uV','uV','uV','uV','uV','uV','uV','uV','uV','uV','uV','uV','uV','uV','uV','uV','uV','uV','uV','uV','uV'
'[15:07:42.000 06/11/2076]',91.819,69.158,49.231,79.316,10.159,128.156,78.535,72.674,-64.078,57.827,124.640,212.552,70.720,205.128,-8.205,63.687,106.667,129.328,-48.449,26.569,103.150,63.687,-8.205
'[15:07:42.004 06/11/2076]',92.210,74.628,60.171,79.707,14.847,132.845,91.038,68.376,-34.774,64.469,125.421,218.803,37.900,118.779,157.851,58.608,106.276,146.911,-59.389,24.225,49.231,-10.940,157.851
'[15:07:42.008 06/11/2076]',87.912,80.488,72.674,78.535,15.629,134.408,104.322,65.641,-20.317,42.589,146.911,210.208,42.979,145.739,135.580,55.092,98.852,163.321,-71.893,19.536,61.734,8.987,135.580
'[15:07:42.012 06/11/2076]',88.303,83.614,75.409,88.694,23.443,130.501,109.792,72.674,-12.112,39.072,169.573,207.082,58.217,153.553,147.692,44.151,91.429,175.043,-74.628,12.894,51.966,30.867,147.692
'[15:07:42.016 06/11/2076]',91.038,84.005,77.753,89.866,32.821,123.077,116.044,71.111,-11.722,37.900,166.056,224.274,11.722,172.698,158.632,72.674,82.051,183.639,-76.972,16.801,34.774,19.536,158.632
'[15:07:42.020 06/11/2076]',85.958,82.051,80.098,87.521,41.026,114.481,123.858,56.264,19.145,29.695,150.818,221.538,12.894,216.068,109.011,84.396,72.674,186.374,-79.316,14.457,40.244,68.767,109.011
'[15:07:42.023 06/11/2076]',67.595,78.144,76.190,98.462,34.383,104.322,119.951,62.125,12.503,25.788,162.540,207.863,9.377,144.567,205.910,49.621,58.217,184.420,-75.409,0.000,50.403,7.424,205.910
'[15:07:42.027 06/11/2076]',64.860,80.879,69.939,90.647,47.277,98.852,111.355,48.840,48.840,-12.894,154.335,194.579,16.410,75.800,243.419,49.231,42.198,182.076,-69.158,-6.642,7.033,1.172,243.419
'[15:07:42.031 06/11/2076]',65.250,83.614,73.065,80.879,65.641,97.289,119.560,19.536,79.707,-11.722,157.460,180.122,6.252,89.084,261.783,47.668,38.291,187.546,-72.283,-6.252,-4.689,7.033,261.783
'[15:07:42.035 06/11/2076]',57.436,82.051,76.972,96.899,76.972,86.349,125.031,25.397,91.429,-33.993,171.136,180.513,38.291,107.448,207.473,54.701,26.960,192.625,-76.190,-17.582,-14.847,86.740,207.473
'[15:07:42.039 06/11/2076]',58.608,90.647,79.316,81.270,92.991,83.223,121.905,11.722,115.263,-58.608,173.089,169.182,17.973,131.673,193.407,54.701,17.192,190.672,-78.535,-32.821,-21.099,103.150,193.407
'[15:07:42.043 06/11/2076]',48.449,91.429,84.005,75.800,95.336,73.065,128.156,2.735,106.667,-57.436,174.652,165.665,-24.225,218.413,141.050,54.701,12.503,191.844,-83.223,-45.714,18.364,123.077,141.050
'[15:07:42.047 06/11/2076]',30.867,87.521,89.475,78.535,96.117,62.906,137.924,-8.596,119.560,-91.429,177.387,158.632,1.172,60.952,246.935,54.310,-0.781,193.016,-88.694,-51.966,7.424,44.542,246.935
'[15:07:42.051 06/11/2076]',30.476,89.866,86.740,61.343,103.541,67.204,129.719,-30.867,121.123,-107.839,186.764,139.487,8.987,41.026,229.744,60.171,-12.503,191.453,-85.958,-46.105,0.000,28.132,229.744
'[15:07:42.055 06/11/2076]',24.615,82.051,84.786,57.827,108.620,59.780,122.295,-40.635,112.137,-111.355,180.122,134.017,-0.781,-42.198,298.120,60.952,-21.099,187.155,-84.005,-50.794,-23.443,-18.755,298.120
'[15:07:42.059 06/11/2076]',20.708,87.912,93.773,42.198,117.998,61.734,128.938,-62.906,119.170,-101.197,175.433,106.667,0.391,-39.463,286.007,52.747,-23.443,193.016,-92.991,-55.092,-46.886,14.457,286.007
'[15:07:42.063 06/11/2076]',13.284,89.084,93.382,33.602,115.653,57.436,126.593,-69.158,110.965,-116.044,168.791,99.634,1.563,-12.112,201.221,72.283,-29.304,189.890,-92.601,-58.608,-51.966,54.701,201.221
'[15:07:42.066 06/11/2076]',1.563,89.084,94.554,39.853,103.150,55.092,130.501,-62.906,91.429,-93.382,161.758,110.183,0.781,-135.580,319.219,85.568,-23.834,187.937,-93.773,-67.204,-76.581,-37.118,319.219
'[15:07:42.070 06/11/2076]',-5.079,94.164,100.415,35.946,96.508,57.827,140.659,-68.376,104.322,-93.773,147.692,114.481,-140.659,-3.126,312.967,104.713,-20.708,189.109,-99.634,-67.204,-128.156,7.424,312.967
'[15:07:42.074 06/11/2076]',-12.503,95.336,100.024,38.681,80.879,53.529,143.394,-56.264,84.396,-124.249,157.851,121.514,-101.978,-43.761,262.564,123.858,-27.350,187.937,-99.243,-68.767,-128.938,11.722,262.564
'[15:07:42.078 06/11/2076]',-25.006,91.038,94.164,53.919,58.608,44.542,142.222,-30.867,47.668,-124.249,172.308,126.984,-130.110,-93.382,342.271,105.885,-30.867,188.327,-93.382,-73.455,-163.321,-21.880,342.271
'[15:07:42.082 06/11/2076]',-23.834,88.694,96.899,39.463,51.184,40.635,149.255,-39.463,28.913,-118.779,180.122,131.673,-147.302,-104.322,355.556,118.779,-27.741,200.049,-96.117,-60.952,-167.619,-58.999,355.556
'[15:07:42.086 06/11/2076]',-28.132,85.958,103.150,29.695,42.198,35.556,157.070,-43.761,21.490,-131.282,183.248,128.547,-39.072,-170.354,281.709,130.891,-32.821,208.254,-102.369,-50.012,-207.473,20.317,281.709
'[15:07:42.090 06/11/2076]',-41.026,84.005,95.726,34.383,19.927,25.397,151.990,-24.225,-14.066,-139.878,197.314,130.110,-66.422,-183.248,293.040,131.282,-37.900,210.598,-94.945,-55.482,-201.221,-16.410,293.040
'[15:07:42.094 06/11/2076]',-51.575,78.535,92.991,35.165,-1.172,18.364,151.600,-12.503,-23.053,-105.495,176.996,122.686,-170.745,-107.839,303.199,146.520,-34.774,215.287,-92.210,-59.780,-230.134,-19.927,303.199
'[15:07:42.098 06/11/2076]',-57.045,69.939,92.210,36.728,-20.317,10.549,159.805,-6.642,-39.072,-107.057,181.685,130.501,-173.480,-69.158,239.902,169.573,-34.383,222.320,-91.429,-44.542,-256.313,27.350,239.902
'[15:07:42.102 06/11/2076]',-61.343,60.952,84.786,46.105,-43.370,0.000,158.632,17.582,-65.641,-114.872,194.969,155.897,-193.407,7.424,162.930,193.016,-31.648,224.664,-84.005,-39.853,-262.955,76.972,162.930
'[15:07:42.105 06/11/2076]',-73.065,51.966,74.628,65.641,-73.846,-7.033,142.613,58.999,-117.607,-94.164,206.691,168.791,-255.140,-101.587,333.284,187.155,-25.006,215.287,-73.846,-46.496,-257.094,-92.991,333.284
'[15:07:42.109 06/11/2076]',-60.952,57.827,90.256,38.291,-71.502,11.722,140.269,45.714,-109.011,-70.330,196.532,147.302,-238.730,-167.228,398.535,172.698,-10.940,216.068,-89.475,-37.118,-324.689,-91.819,398.535
'[15:07:42.113 06/11/2076]',-59.780,50.403,82.051,55.482,-81.270,16.410,123.858,69.548,-117.998,-76.190,185.201,161.758,-247.326,-192.625,396.190,196.142,-12.894,202.784,-81.270,-23.443,-351.648,-101.197,396.190
'[15:07:42.117 06/11/2076]',-54.701,47.668,82.442,61.343,-83.614,22.271,109.792,87.912,-126.203,-58.217,166.056,167.619,-268.816,-219.194,433.309,204.347,-7.033,183.248,-81.661,-18.755,-395.018,-106.667,433.309
'[15:07:42.121 06/11/2076]',-47.277,40.244,88.694,52.747,-81.270,26.569,98.852,90.256,-130.501,-58.999,148.474,176.215,-271.941,-204.347,388.767,222.320,-3.126,162.149,-87.912,-6.642,-388.376,-100.024,388.767
'[15:07:42.125 06/11/2076]',-42.979,30.867,81.270,54.310,-83.223,19.927,84.005,103.541,-150.427,-82.833,141.441,186.764,-245.372,-149.255,240.293,248.498,-3.907,138.315,-80.488,5.861,-368.840,-35.556,240.293
'[15:07:42.129 06/11/2076]',-35.556,25.788,81.661,53.529,-81.661,20.317,71.502,115.653,-171.136,-71.893,142.613,175.824,-262.564,-182.076,280.147,239.902,6.252,117.998,-80.879,3.126,-358.681,-91.429,280.147
'[15:07:42.133 06/11/2076]',-23.834,25.006,91.038,33.211,-70.720,31.258,64.469,101.197,-168.400,-46.105,138.706,159.805,-263.736,-153.944,265.299,236.386,23.053,106.276,-90.256,2.344,-332.894,-95.726,265.299
'[15:07:42.137 06/11/2076]',-8.205,21.880,92.210,25.397,-56.654,36.728,58.999,92.601,-173.871,-37.900,152.381,160.977,-230.134,-129.328,206.300,255.531,38.291,100.806,-91.429,6.642,-302.418,-88.303,206.300
'[15:07:42.141 06/11/2076]',0.000,21.490,92.210,34.774,-50.403,44.151,50.794,104.322,-172.698,25.006,147.302,128.156,-242.637,-158.632,308.669,221.929,58.608,92.210,-91.429,-7.424,-337.582,-112.918,308.669
'[15:07:42.145 06/11/2076]',12.503,28.132,94.945,29.304,-36.728,50.794,44.933,106.667,-166.056,46.496,157.070,111.355,-234.432,-13.284,198.095,199.658,71.893,85.958,-94.164,-16.020,-336.020,8.987,198.095
'[15:07:42.148 06/11/2076]',30.085,25.006,88.694,25.006,-19.536,49.621,39.072,100.806,-155.116,47.277,161.368,117.998,-159.414,-30.867,139.878,224.274,79.316,78.144,-87.912,-2.735,-302.808,-8.987,139.878
'[15:07:42.152 06/11/2076]',45.714,21.880,80.879,26.569,-3.907,48.059,31.258,100.806,-117.607,82.051,136.752,103.150,-179.731,-25.006,177.387,232.479,83.223,64.078,-80.098,3.907,-311.013,-57.436,177.387
'[15:07:42.156 06/11/2076]',54.310,28.132,81.270,14.066,12.894,42.979,19.536,102.759,-71.111,101.978,101.587,75.409,-161.758,68.376,106.667,194.969,80.098,39.853,-80.488,-12.112,-289.133,21.490,106.667
'[15:07:42.160 06/11/2076]',60.952,29.695,75.018,2.344,25.788,28.913,11.331,103.150,-50.403,96.899,82.442,64.860,-129.328,65.641,64.860,192.234,73.065,17.973,-74.237,-21.099,-214.115,-28.132,64.860
'[15:07:42.164 06/11/2076]',67.595,25.788,66.032,6.252,39.463,14.457,10.159,102.759,-19.145,124.640,55.092,48.059,-114.872,-2.344,154.725,171.917,71.111,-0.391,-65.250,-24.225,-227.009,-82.442,154.725
'[15:07:42.168 06/11/2076]',71.893,31.258,61.734,-4.689,53.529,4.298,4.298,97.680,-2.344,136.361,33.993,16.801,-71.893,25.788,102.759,129.719,63.687,-23.834,-60.952,-39.463,-202.784,-29.695,102.759
'[15:07:42.172 06/11/2076]',78.535,35.165,51.966,-23.053,71.893,-4.689,-8.987,84.786,17.582,107.839,21.099,-8.205,-74.628,48.840,51.966,113.700,47.277,-49.231,-51.184,-45.324,-171.526,-26.569,51.966
'[15:07:42.176 06/11/2076]',85.177,28.523,30.476,-32.821,88.303,-13.675,-30.085,67.985,40.244,91.429,3.907,-29.304,-50.794,21.099,31.258,105.495,25.788,-75.800,-29.695,-35.165,-167.228,-40.244,31.258
'[15:07:42.180 06/11/2076]',85.177,22.662,13.675,-48.059,102.369,-28.523,-43.761,44.933,71.502,72.674,-27.350,-65.641,-26.569,66.422,-71.502,83.614,0.000,-106.276,-12.894,-30.867,-128.938,2.735,-71.502
'[15:07:42.184 06/11/2076]',80.879,9.768,-5.079,-58.217,112.137,-48.449,-64.860,28.523,101.197,35.165,-58.999,-85.568,-5.079,75.800,-156.679,78.144,-32.430,-138.315,5.861,-28.523,-116.825,50.403,-156.679
'[15:07:42.188 06/11/2076]',78.144,0.000,-24.225,-67.204,122.686,-66.813,-80.488,12.112,126.984,-3.516,-75.800,-94.554,0.391,69.939,-182.076,63.687,-61.343,-162.149,25.006,-23.834,-74.237,26.569,-182.076
'[15:07:42.191 06/11/2076]',69.939,-9.768,-37.509,-76.190,126.593,-87.912,-91.429,-1.172,142.613,-20.708,-103.932,-124.249,2.735,67.595,-212.943,35.165,-89.866,-184.029,38.291,-27.741,-62.906,45.324,-212.943
'[15:07:42.195 06/11/2076]',54.310,-21.099,-57.436,-71.502,125.031,-110.965,-112.918,1.954,151.990,-41.026,-130.501,-150.037,-2.735,-3.126,-162.149,-0.781,-120.342,-203.565,58.217,-35.556,-80.879,31.648,-162.149
'[15:07:42.199 06/11/2076]',53.919,-25.788,-59.780,-96.117,135.971,-125.812,-118.388,-19.536,178.559,-52.357,-159.805,-168.400,-27.350,87.131,-253.578,-8.205,-144.567,-218.022,60.562,-35.165,-53.919,86.349,-253.578
'[15:07:42.203 06/11/2076]',33.602,-45.324,-76.972,-89.475,123.468,-153.944,-130.110,-17.582,176.215,-68.376,-184.420,-172.308,-35.165,-45.324,-144.176,-23.443,-176.606,-235.995,77.753,-31.258,-69.548,1.172,-144.176
'[15:07:42.207 06/11/2076]',21.099,-49.621,-84.786,-117.607,117.998,-169.182,-139.878,-40.635,184.029,-103.541,-196.923,-210.208,-28.913,1.954,-237.167,-62.515,-207.473,-246.935,85.568,-33.602,-30.867,52.357,-237.167
'[15:07:42.211 06/11/2076]',4.689,-60.562,-101.587,-126.203,103.541,-187.155,-152.381,-48.840,171.917,-132.845,-206.691,-224.274,-62.515,-56.264,-194.969,-77.753,-239.902,-252.796,102.369,-32.430,16.020,-54.701,-194.969
'[15:07:42.215 06/11/2076]',-10.159,-74.237,-115.653,-129.328,91.038,-202.393,-153.944,-64.860,162.930,-164.493,-205.519,-226.227,-42.979,-105.104,-190.672,-93.773,-268.816,-249.280,116.435,-22.271,12.503,-49.621,-190.672
'[15:07:42.219 06/11/2076]',-23.443,-83.223,-130.110,-134.799,78.535,-216.459,-156.288,-78.535,159.805,-191.062,-220.757,-232.479,-17.973,-186.374,-183.639,-96.117,-294.603,-246.935,130.891,-15.238,25.788,-91.819,-183.639
'[15:07:42.223 06/11/2076]',-41.026,-88.694,-141.050,-139.878,57.436,-230.525,-162.149,-76.581,125.812,-209.426,-222.711,-240.293,-11.331,-183.639,-232.479,-118.388,-315.702,-246.154,141.832,-28.913,60.171,-73.065,-232.479
'[15:07:42.227 06/11/2076]',-66.032,-96.117,-146.520,-133.626,34.383,-246.154,-162.540,-69.158,130.891,-236.777,-248.107,-251.233,-73.455,-113.700,-264.127,-152.772,-336.410,-251.233,147.302,-48.449,61.734,-4.689,-264.127
'[15:07:42.230 06/11/2076]',-75.018,-99.243,-146.520,-143.785,23.443,-249.670,-151.990,-86.740,117.998,-252.015,-243.028,-256.313,-40.244,-171.136,-254.750,-165.665,-341.880,-242.247,147.302,-37.509,81.270,-33.993,-254.750
'[15:07:42.234 06/11/2076]',-86.349,-102.369,-146.911,-151.209,6.252,-247.326,-148.474,-98.462,99.634,-255.922,-237.949,-273.504,-79.707,-118.388,-288.742,-180.513,-345.397,-233.651,147.692,-29.304,82.833,-8.596,-288.742
'[15:07:42.238 06/11/2076]',-90.647,-107.448,-153.162,-148.474,-2.344,-241.074,-157.851,-99.243,94.554,-278.584,-239.512,-262.955,-99.243,-107.448,-305.153,-173.089,-355.946,-230.525,153.944,-15.629,79.316,-4.689,-305.153
'[15:07:42.242 06/11/2076]',-90.647,-112.137,-155.507,-153.944,-10.549,-234.823,-157.460,-109.011,83.223,-286.789,-234.823,-261.783,-75.800,-164.884,-282.882,-175.433,-356.728,-223.492,156.288,4.689,72.283,-37.900,-282.882
'[15:07:42.246 06/11/2076]',-96.899,-117.607,-160.977,-151.600,-30.476,-232.088,-157.460,-107.448,51.575,-296.166,-221.148,-261.001,-76.581,-137.924,-328.205,-183.639,-357.509,-217.241,161.758,13.675,89.866,-21.099,-328.205
'[15:07:42.250 06/11/2076]',-108.230,-125.421,-169.182,-143.785,-50.403,-232.869,-162.540,-100.806,41.807,-317.656,-232.088,-244.982,-69.158,-166.056,-332.894,-184.420,-362.198,-219.976,169.963,17.192,109.792,-30.867,-332.894
'[15:07:42.254 06/11/2076]',-114.481,-129.719,-160.977,-140.659,-66.422,-227.009,-154.335,-97.289,30.867,-302.027,-235.214,-238.730,-63.297,-147.692,-337.582,-195.751,-353.602,-215.678,161.758,21.490,117.216,-4.298,-337.582
'[15:07:42.258 06/11/2076]',-130.110,-130.110,-157.851,-130.501,-91.819,-218.413,-148.083,-90.256,4.298,-301.636,-227.399,-243.419,-87.131,-195.751,-268.816,-216.459,-346.178,-209.426,158.632,25.006,153.162,-86.349,-268.816
'[15:07:42.262 06/11/2076]',-143.394,-130.110,-154.335,-118.388,-114.872,-207.082,-146.911,-77.753,-8.987,-307.888,-226.227,-244.982,-78.926,-134.408,-344.615,-230.916,-340.708,-201.612,155.116,29.304,165.275,-4.298,-344.615
'[15:07:42.266 06/11/2076]',-148.474,-133.236,-142.222,-106.276,-128.156,-191.844,-138.315,-72.283,-11.722,-288.742,-232.088,-228.571,-87.131,-164.493,-278.584,-231.306,-325.079,-189.109,143.004,36.337,165.275,-29.695,-278.584
'[15:07:42.270 06/11/2076]',-148.474,-131.282,-129.719,-102.759,-135.580,-175.043,-127.375,-75.409,-21.490,-291.087,-214.505,-221.538,-34.774,-232.869,-246.154,-235.604,-309.451,-173.871,130.501,47.668,191.453,-62.906,-246.154
'[15:07:42.273 06/11/2076]',-159.414,-127.766,-123.468,-94.554,-151.600,-163.321,-128.156,-62.906,-39.463,-285.226,-216.459,-228.571,-52.357,-205.910,-258.657,-253.578,-300.073,-170.354,124.249,46.886,210.598,-48.449,-258.657
'[15:07:42.277 06/11/2076]',-164.103,-120.733,-109.402,-95.336,-157.851,-147.692,-125.421,-58.608,-37.118,-274.676,-221.148,-228.962,-47.277,-104.713,-332.112,-278.974,-284.835,-167.228,110.183,41.416,232.479,51.184,-332.112
'[15:07:42.281 06/11/2076]',-165.275,-118.779,-103.150,-82.442,-166.838,-137.143,-116.435,-50.012,-58.608,-270.769,-213.724,-205.128,-26.178,-135.189,-322.344,-264.908,-267.643,-158.632,103.932,57.045,286.007,-10.549,-322.344
'[15:07:42.285 06/11/2076]',-179.341,-117.998,-94.164,-63.687,-186.764,-125.031,-107.448,-36.337,-74.237,-250.842,-207.082,-198.877,-27.350,-170.745,-246.545,-286.789,-248.498,-146.911,94.945,59.780,305.934,-47.277,-246.545
'[15:07:42.289 06/11/2076]',-184.420,-112.137,-83.223,-53.919,-197.314,-112.137,-105.885,-18.364,-82.051,-237.558,-205.910,-193.016,-45.324,-64.469,-298.120,-311.404,-226.618,-139.878,84.005,39.853,350.867,25.397,-298.120
'[15:07:42.293 06/11/2076]',-175.433,-106.276,-73.455,-39.072,-195.751,-94.164,-96.899,-8.205,-103.932,-227.399,-178.950,-170.354,-5.470,-133.626,-236.777,-304.371,-200.440,-117.607,74.237,43.761,408.303,-66.422,-236.777
'[15:07:42.297 06/11/2076]',-171.917,-98.071,-65.250,-26.960,-196.142,-69.158,-83.614,-13.675,-84.396,-193.797,-182.857,-189.890,-17.973,-111.746,-209.426,-312.576,-174.652,-96.899,66.032,49.231,361.416,-19.145,-209.426
'[15:07:42.301 06/11/2076]',-158.632,-88.303,-58.999,-22.662,-187.155,-42.979,-78.535,-19.536,-85.958,-183.248,-169.573,-180.122,3.126,-21.880,-309.060,-291.868,-157.460,-83.614,59.780,56.264,371.966,59.780,-309.060
'[15:07:42.305 06/11/2076]',-146.911,-80.879,-51.575,-11.331,-183.639,-20.708,-72.674,-14.457,-95.726,-183.639,-140.659,-155.116,44.151,-93.382,-245.372,-282.100,-138.315,-67.204,52.357,62.515,378.608,2.344,-245.372
'[15:07:42.309 06/11/2076]',-142.222,-73.846,-42.589,-1.172,-182.857,-3.907,-61.343,-13.284,-91.819,-180.122,-138.706,-144.176,69.548,-123.858,-237.949,-263.346,-123.858,-53.138,43.370,66.422,360.635,10.159,-237.949
'[15:07:42.313 06/11/2076]',-140.269,-71.111,-31.258,11.722,-185.201,8.205,-51.184,-3.516,-112.137,-174.261,-113.309,-132.454,82.051,-164.884,-179.341,-271.941,-109.011,-41.416,32.039,61.734,362.198,-16.020,-179.341
'[15:07:42.316 06/11/2076]',-132.063,-67.204,-20.708,16.801,-183.639,17.192,-42.979,5.470,-135.971,-187.155,-82.442,-97.680,105.495,-185.983,-183.248,-241.074,-92.991,-28.523,21.490,62.515,415.336,-77.363,-183.248
'[15:07:42.320 06/11/2076]',-124.640,-61.343,-5.861,23.053,-175.043,30.085,-31.258,6.252,-116.825,-136.361,-105.104,-92.210,87.912,-159.805,-148.083,-232.088,-70.330,-16.410,6.642,60.952,361.807,-34.774,-148.083
'[15:07:42.324 06/11/2076]',-126.203,-58.217,1.172,37.509,-176.606,35.946,-26.569,21.099,-127.766,-109.792,-99.634,-93.773,59.389,-74.237,-178.559,-238.730,-58.608,-8.205,-0.391,55.873,348.132,26.569,-178.559
'[15:07:42.328 06/11/2076]',-124.640,-49.621,9.377,37.509,-174.261,40.244,-21.099,27.741,-124.640,-94.554,-94.554,-94.945,34.774,-25.397,-173.089,-245.372,-47.668,0.391,-8.596,48.449,355.165,26.178,-173.089
'[15:07:42.332 06/11/2076]',-116.044,-48.059,19.927,39.072,-166.447,41.416,-11.722,29.695,-125.031,-89.084,-78.926,-72.283,53.138,25.397,-217.631,-227.399,-37.900,12.503,-19.145,57.436,345.788,75.800,-217.631
'[15:07:42.336 06/11/2076]',-107.448,-46.496,27.350,40.244,-159.414,44.933,-2.344,29.695,-134.799,-87.912,-55.092,-59.780,100.024,8.987,-240.293,-208.645,-31.258,25.788,-26.569,67.985,351.648,76.190,-240.293
'[15:07:42.340 06/11/2076]',-103.541,-42.979,31.258,45.324,-157.851,44.933,-2.735,44.542,-138.706,-86.349,-42.589,-54.310,92.991,50.794,-252.796,-215.287,-28.913,33.211,-30.476,59.389,368.449,85.568,-252.796
'[15:07:42.344 06/11/2076]',-99.634,-39.072,40.635,53.138,-153.944,46.496,-0.781,62.515,-135.189,-51.966,-43.370,-49.231,78.144,-52.747,-82.442,-224.274,-17.582,42.589,-39.853,44.151,359.853,-32.821,-82.442
'[15:07:42.348 06/11/2076]',-91.038,-38.681,44.933,60.171,-148.864,44.933,12.503,65.641,-132.063,-14.457,-38.681,-48.059,113.309,-59.780,-64.078,-225.446,-5.079,57.827,-44.151,46.105,347.741,-22.271,-64.078
'[15:07:42.352 06/11/2076]',-92.601,-44.542,45.714,72.283,-152.381,32.039,19.536,80.488,-123.468,0.000,-45.324,-33.602,95.726,16.410,-101.587,-214.505,0.391,62.125,-44.933,38.681,334.066,44.933,-101.587
'[15:07:42.355 06/11/2076]',-91.429,-38.291,48.059,65.641,-151.600,30.867,16.801,86.740,-133.236,18.755,-35.556,-31.258,59.389,45.714,-64.860,-223.101,8.987,59.780,-47.277,22.662,353.211,7.814,-64.860
'[15:07:42.359 06/11/2076]',-81.661,-33.211,49.231,48.059,-143.394,34.383,17.582,72.674,-126.984,16.410,-19.145,-36.337,120.342,93.382,-167.228,-214.896,18.364,62.125,-48.449,28.523,334.457,105.495,-167.228
'[15:07:42.363 06/11/2076]',-80.488,-34.774,41.026,51.184,-141.441,33.993,9.377,72.674,-131.282,14.847,-10.159,-30.476,103.541,95.726,-164.493,-193.797,13.675,58.217,-40.244,39.853,314.921,86.349,-164.493
'[15:07:42.367 06/11/2076]',-71.502,-30.085,39.853,39.463,-132.063,35.556,4.689,67.985,-144.176,36.728,1.172,-31.258,76.581,107.057,-126.984,-195.360,19.145,56.264,-39.072,41.026,319.219,37.509,-126.984
'[15:07:42.371 06/11/2076]',-66.032,-32.039,37.509,36.337,-124.640,28.132,1.563,68.376,-125.812,32.039,0.000,-26.178,132.454,30.476,-94.945,-189.109,17.582,53.529,-36.728,44.933,291.477,26.960,-94.945
'[15:07:42.375 06/11/2076]',-58.608,-34.383,33.211,31.648,-118.779,17.192,1.563,69.939,-139.096,39.853,10.549,-25.397,135.971,3.126,-60.952,-192.625,19.536,54.310,-32.430,52.357,296.166,-28.523,-60.952
'[15:07:42.379 06/11/2076]',-55.482,-32.430,30.476,22.271,-109.402,7.814,-0.391,66.422,-121.905,66.813,-12.503,-40.244,112.918,54.701,-66.032,-210.208,25.397,46.496,-29.695,44.542,272.332,14.457,-66.032
'[15:07:42.383 06/11/2076]',-47.668,-33.211,29.304,11.331,-102.369,1.172,-4.298,64.078,-128.547,73.455,0.000,-26.178,125.031,40.635,-50.794,-197.314,33.993,42.198,-28.523,48.059,279.756,-23.053,-50.794
'[15:07:42.387 06/11/2076]',-41.416,-37.900,23.443,8.596,-96.117,-3.907,-8.596,60.952,-125.031,87.521,0.000,-15.629,134.017,52.357,-58.999,-180.904,42.198,37.118,-22.662,53.529,252.796,-3.907,-58.999
'[15:07:42.391 06/11/2076]',-43.761,-39.463,14.847,8.596,-96.899,-12.894,-14.847,65.250,-131.282,100.806,-8.596,-26.569,120.733,132.454,-130.891,-189.109,43.761,26.960,-14.066,45.714,242.637,68.376,-130.891
'[15:07:42.395 06/11/2076]',-39.853,-39.463,17.582,2.735,-100.024,-17.973,-17.582,75.409,-148.864,98.852,5.079,-24.615,121.905,150.818,-155.507,-187.937,48.449,21.880,-16.801,39.853,252.405,61.734,-155.507
'[15:07:42.398 06/11/2076]',-25.006,-37.900,19.536,-8.987,-89.866,-15.629,-10.549,62.515,-143.394,109.792,8.987,-19.536,143.394,106.276,-104.322,-189.890,58.999,26.569,-18.755,49.621,191.453,65.641,-104.322
'[15:07:42.402 06/11/2076]',-12.112,-36.728,17.973,-12.894,-84.786,-14.066,-5.079,58.608,-148.474,117.607,15.238,-4.298,141.832,117.216,-121.123,-158.242,69.939,31.648,-17.192,57.827,193.016,36.337,-121.123
'[15:07:42.406 06/11/2076]',-1.954,-27.350,18.755,-19.145,-82.051,-10.549,-5.470,67.595,-159.023,132.845,13.284,3.126,121.905,162.930,-149.646,-144.176,77.753,29.695,-17.973,43.370,194.969,41.807,-149.646
'[15:07:42.410 06/11/2076]',5.861,-23.053,15.629,-19.536,-81.661,-13.284,-1.563,75.409,-169.963,130.891,24.615,21.490,168.400,18.755,-47.668,-132.454,85.568,31.648,-14.847,37.118,191.062,-71.893,-47.668
'[15:07:42.414 06/11/2076]',15.238,-24.615,10.549,-14.457,-76.972,-21.099,8.987,75.018,-165.275,127.766,22.271,41.026,171.526,65.641,-116.825,-93.382,92.210,36.337,-9.768,42.198,194.579,-50.403,-116.825
'[15:07:42.418 06/11/2076]',19.145,-22.662,13.675,-21.490,-74.237,-26.178,13.675,75.018,-182.466,129.719,23.834,42.589,171.526,167.228,-244.982,-79.707,93.773,30.867,-12.894,36.337,212.552,24.615,-244.982
'[15:07:42.422 06/11/2076]',25.006,-19.145,18.364,-27.741,-70.330,-22.662,14.066,75.018,-197.705,144.567,43.761,33.602,152.381,124.249,-137.143,-115.263,105.495,27.741,-17.582,29.304,149.646,12.112,-137.143
'[15:07:42.426 06/11/2076]',44.933,-15.238,18.755,-35.165,-50.012,-8.987,12.894,58.999,-178.559,144.176,43.370,37.900,137.534,129.719,-140.659,-79.316,114.872,30.867,-17.973,43.370,114.872,-5.861,-140.659
'[15:07:42.430 06/11/2076]',53.529,-12.503,23.053,-32.430,-40.244,0.391,14.066,56.264,-180.904,165.275,47.668,37.900,94.554,241.465,-216.068,-50.403,125.812,30.867,-22.271,43.761,87.912,63.297,-216.068
'[15:07:42.434 06/11/2076]',58.608,-17.582,20.708,-10.940,-35.556,4.689,10.159,71.111,-193.797,185.201,52.747,58.608,73.065,46.105,-10.159,-7.033,134.799,29.695,-19.927,40.635,44.151,-119.560,-10.159
'[15:07:42.438 06/11/2076]',75.409,-14.457,33.602,-11.722,-15.238,14.847,18.364,62.906,-172.698,187.937,54.310,75.409,103.541,47.668,-47.668,41.026,145.739,36.337,-32.821,42.979,30.085,-101.197,-47.668
'[15:07:42.441 06/11/2076]',75.800,-15.629,39.463,-1.563,-12.503,17.582,21.880,69.548,-180.122,195.360,62.125,75.800,93.382,-1.563,10.549,50.012,153.162,38.681,-38.681,38.291,-3.516,-128.938,10.549
'[15:07:42.445 06/11/2076]',87.131,-15.238,47.277,-5.861,-9.377,26.569,28.132,67.204,-220.366,216.459,101.587,75.800,47.277,-13.675,84.396,55.482,168.791,48.449,-46.496,35.556,-16.801,-205.519,84.396
'[15:07:42.449 06/11/2076]',95.336,-14.847,56.264,0.781,-2.344,36.728,34.774,67.595,-194.969,198.486,113.309,92.210,109.792,-119.560,141.832,77.363,183.639,54.701,-55.482,35.946,-88.694,-192.234,141.832
'[15:07:42.453 06/11/2076]',111.355,-10.159,65.641,-4.298,10.549,50.012,42.198,57.436,-171.526,200.830,116.044,104.322,52.357,-61.734,133.626,124.249,198.877,61.734,-64.860,40.244,-143.004,-176.215,133.626
'[15:07:42.457 06/11/2076]',116.435,-6.252,71.502,1.563,10.940,58.608,43.370,68.376,-189.499,202.002,144.957,109.402,-0.391,-1.954,121.514,148.864,210.989,68.376,-70.720,28.913,-181.294,-157.460,121.514
'[15:07:42.461 06/11/2076]',126.593,3.126,80.488,2.735,27.741,70.330,42.979,70.330,-133.236,206.691,117.998,102.369,-23.834,47.277,91.038,178.559,217.241,66.422,-79.707,12.894,-249.280,-82.051,91.038
'[15:07:42.465 06/11/2076]',139.096,11.722,84.396,-1.563,46.105,78.535,48.059,59.780,-122.686,213.333,114.481,108.230,-38.681,9.768,133.236,208.645,221.929,73.455,-83.614,16.020,-285.617,-121.514,133.236
'[15:07:42.469 06/11/2076]',143.394,17.192,88.303,-4.689,55.482,85.177,51.966,49.621,-133.236,200.830,145.348,112.137,-41.416,-26.569,184.420,208.645,227.009,77.753,-87.521,10.940,-308.278,-144.957,184.420
'[15:07:42.473 06/11/2076]',138.315,22.662,83.614,1.172,57.827,88.303,40.244,58.217,-130.110,208.645,120.342,112.527,-80.098,-39.463,197.314,234.823,230.525,65.250,-82.833,-11.722,-282.100,-201.221,197.314
'[15:07:42.477 06/11/2076]',132.454,30.867,82.833,-1.172,61.734,89.084,37.509,54.310,-128.938,180.513,114.090,109.792,-111.355,-44.933,182.857,248.889,233.651,52.357,-82.051,-32.821,-277.021,-203.175,182.857
'[15:07:42.480 06/11/2076]',133.236,32.821,78.926,-0.391,72.283,93.773,35.946,40.635,-126.593,172.698,107.448,115.263,-107.448,0.000,94.945,282.491,243.028,44.933,-78.144,-29.304,-296.166,-132.845,94.945
'[15:07:42.484 06/11/2076]',133.626,37.118,73.065,0.391,84.005,101.197,28.132,28.913,-101.197,182.857,83.223,99.243,-135.971,-57.436,158.632,299.683,247.717,31.648,-72.283,-35.946,-330.159,-183.248,158.632
'[15:07:42.488 06/11/2076]',148.474,46.496,67.204,-14.847,111.355,112.918,16.410,5.470,-91.429,187.937,74.237,89.084,-134.408,-105.495,185.983,313.748,246.935,17.582,-66.422,-34.774,-376.264,-189.499,185.983
'[15:07:42.492 06/11/2076]',157.070,50.794,61.343,-23.053,131.673,121.123,9.768,-16.020,-84.396,199.658,73.065,80.098,-117.216,-144.176,216.850,314.139,249.280,10.549,-60.562,-29.304,-399.707,-207.473,216.850
'[15:07:42.496 06/11/2076]',160.586,57.436,52.357,-24.225,145.739,125.812,1.563,-26.569,-76.190,200.830,79.707,68.376,-118.388,-131.282,212.161,311.404,248.498,-1.172,-51.575,-35.165,-397.363,-207.473,212.161
'[15:07:42.500 06/11/2076]',162.149,63.687,47.277,-35.946,155.897,127.375,-3.907,-41.807,-66.032,217.241,66.813,60.171,-121.514,-28.913,105.495,324.298,246.935,-19.145,-46.496,-45.324,-384.860,-121.514,105.495
'[15:07:42.504 06/11/2076]',160.586,66.813,44.542,-33.211,162.930,124.640,-7.033,-41.026,-51.184,214.896,69.158,70.330,-113.700,30.476,60.952,325.861,243.810,-29.695,-43.761,-50.012,-379.780,-69.939,60.952
'[15:07:42.508 06/11/2076]',159.023,75.018,41.416,-39.463,171.136,124.249,-8.987,-49.231,-14.847,217.241,61.734,45.324,-165.275,106.667,64.860,304.371,233.260,-39.463,-40.635,-59.389,-376.264,-61.343,64.860
'[15:07:42.512 06/11/2076]',157.460,83.614,40.635,-53.919,178.168,121.123,-12.503,-58.999,13.284,207.082,53.919,26.960,-157.460,135.971,36.728,286.789,217.241,-51.184,-39.853,-68.767,-323.126,-80.879,36.728
'[15:07:42.516 06/11/2076]',158.242,83.614,35.556,-50.012,185.983,118.779,-17.192,-59.780,48.449,218.803,37.118,33.602,-143.004,55.092,134.408,292.259,209.426,-55.873,-34.774,-71.502,-366.496,-118.388,134.408
'[15:07:42.520 06/11/2076]',162.149,89.084,35.556,-62.906,200.049,123.077,-14.847,-84.005,100.806,203.956,38.681,14.066,-87.521,3.516,171.917,271.551,198.486,-58.217,-34.774,-69.548,-369.621,-123.858,171.917
'[15:07:42.523 06/11/2076]',160.977,95.726,28.913,-68.376,209.035,125.031,-22.662,-93.773,146.129,214.115,15.629,-19.927,-49.621,46.105,115.263,243.810,186.764,-68.767,-28.132,-84.005,-375.482,-33.993,115.263
'[15:07:42.527 06/11/2076]',157.460,97.680,22.271,-66.813,216.068,121.905,-30.476,-95.336,185.592,222.320,-8.205,-34.383,-94.164,123.468,103.541,231.697,175.043,-80.488,-21.490,-94.164,-390.330,15.629,103.541
'[15:07:42.531 06/11/2076]',155.897,87.912,19.145,-64.469,219.194,110.183,-25.006,-105.104,203.565,201.221,0.781,-32.430,-93.773,160.977,73.846,232.479,160.586,-82.051,-18.364,-83.614,-352.430,12.503,73.846
'[15:07:42.535 06/11/2076]',143.785,77.363,14.847,-57.436,217.631,92.991,-25.397,-105.104,243.810,164.884,-17.192,-35.556,-80.879,233.651,-35.556,239.121,136.361,-94.945,-14.066,-84.005,-305.153,77.753,-35.556
'[15:07:42.539 06/11/2076]',120.733,63.297,8.987,-41.026,204.347,67.985,-37.118,-81.661,258.266,141.441,-44.542,-29.695,-101.978,187.937,12.894,226.618,112.527,-115.263,-8.205,-101.978,-259.829,21.880,12.894
'[15:07:42.543 06/11/2076]',109.011,53.138,8.987,-34.383,201.221,54.310,-35.556,-82.833,272.723,111.355,-36.728,-33.602,-71.893,44.151,151.990,188.718,93.382,-118.388,-8.205,-102.369,-247.326,-66.422,151.990
'[15:07:42.547 06/11/2076]',102.759,46.496,8.987,-44.542,203.956,48.059,-31.258,-106.667,302.808,104.322,-50.403,-68.767,-60.562,75.409,106.667,165.275,71.502,-121.905,-8.205,-89.084,-240.293,-18.755,106.667
'[15:07:42.551 06/11/2076]',97.680,30.867,-3.907,-37.509,203.565,37.509,-43.370,-110.965,314.921,80.879,-60.171,-73.455,-52.357,76.190,80.879,155.897,44.933,-133.626,4.689,-74.237,-228.571,-5.079,80.879
'[15:07:42.555 06/11/2076]',92.991,16.020,-6.252,-38.291,201.221,25.397,-48.059,-114.481,316.093,61.734,-62.515,-69.158,-95.726,57.436,129.719,153.162,20.317,-136.361,7.033,-58.217,-182.076,-102.369,129.719
'[15:07:42.559 06/11/2076]',84.786,1.563,-11.331,-42.198,198.095,10.549,-52.747,-123.468,338.364,18.364,-81.661,-78.535,-73.846,152.772,-25.006,142.613,-9.768,-140.659,12.112,-42.198,-184.029,46.496,-25.006
'[15:07:42.563 06/11/2076]',66.813,-14.066,-21.099,-24.615,183.248,-9.768,-63.687,-103.541,342.271,-25.006,-102.369,-69.158,-40.244,126.984,-73.455,130.891,-41.807,-148.864,21.880,-37.509,-144.567,66.032,-73.455
'[15:07:42.566 06/11/2076]',55.092,-21.099,-18.364,-23.834,173.871,-19.536,-62.515,-100.024,339.145,-33.993,-109.792,-62.125,-75.800,48.449,55.482,101.978,-60.171,-146.129,19.145,-36.728,-164.884,8.205,55.482
'[15:07:42.570 06/11/2076]',49.621,-24.615,-17.582,-30.476,168.791,-27.350,-57.436,-107.448,346.178,-69.939,-111.746,-55.482,-43.761,150.818,-96.508,97.289,-79.316,-143.394,18.364,-25.397,-144.957,147.692,-96.508
'[15:07:42.574 06/11/2076]',33.993,-31.258,-21.099,-24.225,147.692,-37.118,-57.436,-95.336,334.457,-92.991,-113.700,-62.125,-46.105,50.403,-8.987,68.376,-96.508,-144.957,21.880,-15.629,-127.375,58.217,-8.987
'[15:07:42.578 06/11/2076]',20.317,-34.774,-22.271,-24.615,125.421,-42.198,-54.310,-89.475,318.437,-100.806,-105.104,-71.893,-84.005,47.277,46.496,29.695,-107.448,-139.878,23.053,-15.238,-85.958,5.079,46.496
'[15:07:42.582 06/11/2076]',9.768,-45.714,-29.304,-17.973,103.541,-50.403,-50.794,-85.958,299.683,-126.203,-98.852,-51.966,-50.012,50.403,-15.629,36.337,-117.998,-129.719,30.085,4.298,-33.993,15.629,-15.629
'[15:07:42.586 06/11/2076]',0.000,-52.357,-32.039,-12.894,85.568,-50.403,-46.105,-87.131,296.166,-128.156,-105.495,-56.654,-48.449,-14.847,56.264,11.331,-123.858,-123.468,32.821,20.317,-31.258,-21.099,56.264
'[15:07:42.590 06/11/2076]',-17.582,-53.138,-40.635,-3.126,62.515,-50.403,-51.184,-76.190,284.054,-143.785,-103.932,-61.734,-74.237,38.291,31.648,-23.053,-131.282,-124.640,41.416,16.020,0.391,15.629,31.648
'[15:07:42.594 06/11/2076]',-39.463,-56.654,-49.231,9.377,38.681,-53.919,-56.264,-64.469,264.127,-176.606,-103.541,-51.966,-55.873,-0.391,25.788,-38.681,-139.096,-125.812,50.012,17.582,33.211,19.145,25.788
'[15:07:42.598 06/11/2076]',-55.873,-59.389,-46.886,13.284,22.662,-55.092,-47.668,-68.376,267.253,-178.168,-119.560,-54.701,-63.297,11.331,20.708,-54.310,-137.924,-126.593,47.668,27.741,61.343,24.225,20.708
'[15:07:42.602 06/11/2076]',-74.237,-66.422,-49.621,23.443,3.907,-65.250,-45.324,-59.780,250.842,-198.486,-112.918,-42.589,-54.310,58.608,-35.165,-71.893,-142.222,-127.766,50.403,29.304,104.322,76.581,-35.165
'[15:07:42.605 06/11/2076]',-98.071,-66.422,-55.092,32.821,-16.801,-71.502,-56.654,-40.635,227.399,-210.598,-121.123,-35.946,-39.072,12.894,-18.755,-96.117,-151.600,-133.236,55.873,20.317,143.004,62.906,-18.755
'[15:07:42.609 06/11/2076]',-102.759,-59.780,-51.184,14.847,-23.834,-69.548,-50.403,-53.529,212.161,-198.486,-112.918,-52.357,-44.542,57.436,-41.416,-123.468,-148.864,-125.421,51.966,28.132,155.116,94.554,-41.416
'[15:07:42.613 06/11/2076]',-109.792,-60.952,-64.860,24.225,-33.602,-69.548,-59.780,-47.277,196.923,-207.473,-103.150,-52.747,-76.190,67.595,-30.476,-128.156,-157.460,-122.295,65.641,44.933,147.302,85.177,-30.476
'[15:07:42.617 06/11/2076]',-119.170,-58.999,-70.720,31.258,-43.370,-69.548,-67.985,-35.556,180.513,-197.705,-106.276,-60.171,-80.098,-60.171,119.560,-164.103,-161.368,-119.560,71.502,48.449,140.659,-10.549,119.560
'[15:07:42.621 06/11/2076]',-119.560,-51.575,-66.422,22.271,-48.449,-65.250,-64.078,-36.337,179.731,-200.830,-102.759,-58.217,-94.164,16.801,67.204,-173.089,-162.930,-109.792,67.204,57.045,153.553,46.496,67.204
'[15:07:42.625 06/11/2076]',-125.031,-55.482,-70.330,33.993,-67.204,-71.893,-63.297,-13.675,134.408,-203.956,-84.005,-40.635,-97.289,43.761,27.350,-168.400,-166.838,-96.508,71.111,68.767,208.254,21.490,27.350
'[15:07:42.629 06/11/2076]',-127.375,-50.403,-62.125,28.913,-79.707,-69.548,-58.217,-3.126,128.547,-216.459,-83.223,-46.496,-41.026,-45.324,62.515,-194.188,-171.917,-82.442,62.906,69.548,202.002,20.317,62.515
'[15:07:42.633 06/11/2076]',-126.203,-46.496,-57.045,23.443,-93.382,-67.985,-48.059,4.298,110.574,-228.571,-64.469,-25.006,-14.066,39.853,-56.264,-178.168,-170.354,-64.860,57.827,75.800,228.181,103.932,-56.264
'[15:07:42.637 06/11/2076]',-119.560,-50.794,-57.827,27.741,-106.276,-64.078,-43.370,13.284,84.005,-213.333,-52.357,-7.033,-6.252,23.834,-52.747,-153.944,-162.149,-46.886,58.608,92.601,232.479,71.502,-52.747
'[15:07:42.641 06/11/2076]',-118.779,-44.151,-54.701,33.211,-116.825,-53.138,-37.900,23.053,102.369,-202.002,-58.999,-31.258,-21.099,-107.448,149.646,-211.770,-153.162,-35.165,55.482,81.661,211.770,-38.291,149.646
'[15:07:42.645 06/11/2076]',-115.263,-34.383,-47.668,30.476,-125.421,-44.151,-29.304,32.039,80.098,-192.234,-40.635,-35.165,-25.006,-51.966,107.839,-219.585,-139.096,-18.755,48.449,73.455,241.074,-15.238,107.839
'[15:07:42.648 06/11/2076]',-102.369,-29.695,-41.416,37.118,-126.203,-32.430,-15.629,37.900,60.952,-176.996,-19.927,-10.940,-41.026,70.720,18.755,-195.751,-123.077,6.252,42.198,89.084,226.227,72.283,18.755
'[15:07:42.652 06/11/2076]',-92.601,-26.178,-33.211,46.886,-125.812,-20.708,-1.954,43.761,46.886,-147.692,-7.424,-1.954,-37.509,-19.536,133.236,-185.983,-108.230,28.913,33.993,89.475,250.842,-52.357,133.236
'[15:07:42.656 06/11/2076]',-93.773,-17.192,-31.258,57.436,-135.580,-15.629,3.126,63.687,17.192,-141.441,10.549,14.066,-39.072,7.424,105.495,-173.480,-97.289,42.198,32.039,75.409,234.042,-10.549,105.495
'[15:07:42.660 06/11/2076]',-87.912,-5.470,-22.271,57.045,-138.706,-4.298,15.629,68.767,3.907,-116.825,26.178,25.788,-39.463,83.614,66.032,-171.526,-77.363,62.906,23.053,62.906,240.684,39.072,66.032
'[15:07:42.664 06/11/2076]',-88.303,-4.689,-23.053,78.535,-144.957,-4.298,32.430,78.144,6.252,-102.369,14.457,42.589,-22.662,39.853,87.131,-141.832,-61.343,78.144,23.834,59.780,226.227,28.913,87.131
'[15:07:42.668 06/11/2076]',-85.958,7.424,-16.020,74.237,-150.037,0.781,49.231,79.316,-2.344,-107.839,41.416,46.105,-8.596,46.886,96.508,-157.851,-45.324,92.601,16.801,45.324,228.181,40.635,96.508
'[15:07:42.672 06/11/2076]',-74.628,19.536,-3.516,73.065,-146.911,14.066,58.608,87.912,-25.397,-84.005,65.641,57.436,-5.470,70.330,81.661,-132.845,-26.960,114.481,4.298,40.244,258.266,6.252,81.661
'[15:07:42.676 06/11/2076]',-59.780,23.443,-0.391,82.833,-130.110,23.834,61.343,91.038,-5.861,-74.237,58.999,67.595,-7.424,143.785,17.973,-106.667,-19.927,128.938,1.172,49.621,221.929,87.131,17.973
'[15:07:42.680 06/11/2076]',-50.012,28.132,-0.391,92.601,-125.812,28.523,68.767,98.071,-29.304,-59.389,94.164,78.535,-3.516,85.958,104.322,-103.150,-9.377,145.348,1.172,53.529,212.943,1.563,104.322
'[15:07:42.684 06/11/2076]',-43.370,33.211,2.344,98.462,-121.123,35.556,75.018,100.415,-18.364,-44.151,101.587,87.521,9.768,40.635,162.149,-86.740,2.735,160.195,-1.563,52.357,172.308,-20.708,162.149
'[15:07:42.688 06/11/2076]',-36.728,36.337,5.079,100.806,-116.044,35.946,85.568,99.634,-3.907,-40.244,97.289,101.197,26.178,81.270,110.183,-63.297,7.424,172.698,-4.298,55.092,153.162,37.118,110.183
'[15:07:42.691 06/11/2076]',-33.602,40.635,7.814,107.839,-119.951,33.993,100.806,107.057,-13.284,-16.801,107.448,103.150,3.516,114.481,130.110,-67.985,17.973,189.890,-7.033,52.357,149.255,20.708,130.110
'[15:07:42.695 06/11/2076]',-37.900,45.714,16.801,116.044,-128.547,35.556,112.918,120.733,-19.145,2.344,117.607,102.759,37.900,-21.099,261.392,-74.628,24.615,207.863,-16.020,42.979,141.832,-84.396,261.392
'[15:07:42.699 06/11/2076]',-31.648,50.403,26.569,116.435,-125.031,37.900,125.031,124.249,-25.006,16.801,128.156,132.063,43.761,12.503,232.088,-36.337,31.258,227.790,-25.788,46.105,162.930,-100.415,232.088
'[15:07:42.703 06/11/2076]',-22.271,52.357,35.165,119.560,-117.998,38.681,138.706,125.031,-46.886,22.271,162.540,156.288,55.482,80.879,178.559,-21.099,39.463,244.982,-34.383,50.794,159.023,-48.840,178.559
'[15:07:42.707 06/11/2076]',-22.271,55.482,41.416,120.342,-114.872,39.853,142.222,127.766,-50.012,20.317,176.215,153.553,65.641,113.700,137.534,-17.582,44.542,248.498,-40.635,42.979,157.070,-17.582,137.534
'[15:07:42.711 06/11/2076]',-19.927,53.138,38.291,124.249,-110.965,36.337,139.096,132.063,-46.496,8.596,180.122,159.805,60.952,192.625,53.919,-5.861,47.277,248.498,-37.509,39.463,167.619,35.556,53.919
'[15:07:42.715 06/11/2076]',-8.596,45.714,33.993,126.203,-103.541,32.430,144.176,124.640,-60.562,7.814,203.175,176.606,80.879,218.803,15.629,10.159,53.529,259.048,-33.211,53.919,157.070,59.780,15.629
'[15:07:42.719 06/11/2076]',-9.768,35.165,26.569,140.659,-102.759,25.006,143.785,127.375,-38.681,55.092,159.023,170.745,70.330,227.399,26.960,20.708,61.343,256.703,-25.788,54.701,145.348,58.608,26.960
'[15:07:42.723 06/11/2076]',-16.801,32.039,18.755,147.302,-111.746,16.801,135.189,141.441,-49.231,57.436,164.884,179.341,100.806,112.527,119.560,18.364,64.860,253.187,-17.973,41.807,118.388,0.000,119.560
'[15:07:42.727 06/11/2076]',-14.847,32.821,19.145,142.613,-111.355,12.503,137.143,142.222,-60.171,57.436,186.764,179.341,115.653,80.488,181.294,-14.457,73.846,256.703,-18.364,30.476,169.573,-72.283,181.294
'[15:07:42.730 06/11/2076]',-14.457,31.648,21.099,137.924,-109.792,11.722,144.176,129.719,-54.701,89.084,181.685,162.540,72.674,160.586,158.632,-13.675,88.303,254.750,-20.317,32.430,151.990,-36.337,158.632
'[15:07:42.734 06/11/2076]',-7.033,32.039,20.708,121.905,-105.495,19.536,138.706,115.653,-69.548,94.164,205.910,155.897,95.726,219.585,85.568,-15.629,96.508,253.187,-19.927,39.853,149.255,12.503,85.568
'[15:07:42.738 06/11/2076]',-0.781,27.350,15.238,122.686,-102.369,28.523,122.686,116.825,-76.581,112.137,205.519,159.805,78.535,152.772,189.890,-19.536,101.978,249.280,-14.457,43.370,149.646,-87.521,189.890
'[15:07:42.742 06/11/2076]',7.814,24.225,12.112,109.011,-96.117,36.728,113.309,100.024,-68.376,143.785,187.155,143.394,96.508,221.148,107.057,-18.364,110.183,248.107,-11.331,51.575,86.349,34.774,107.057
'[15:07:42.746 06/11/2076]',5.079,21.099,4.298,108.230,-103.541,41.026,99.634,102.369,-87.912,148.083,189.499,144.567,127.766,187.937,94.945,-16.801,113.309,243.419,-3.516,52.747,84.396,27.350,94.945
'[15:07:42.750 06/11/2076]',6.252,19.927,2.735,106.276,-105.104,47.668,91.429,102.369,-87.131,143.394,201.221,146.911,137.534,95.336,206.300,-34.383,118.779,240.293,-1.954,48.059,84.005,-54.310,206.300
'[15:07:42.754 06/11/2076]',12.112,21.099,1.563,94.945,-98.852,51.575,88.303,89.475,-91.819,145.348,207.473,146.520,147.302,116.825,174.261,-31.648,126.984,237.167,-0.781,49.621,85.958,-30.085,174.261
'[15:07:42.758 06/11/2076]',12.894,24.615,-0.781,85.958,-99.243,54.310,80.098,88.303,-124.640,143.394,225.836,140.269,155.507,176.215,77.363,-25.397,128.547,232.088,1.563,49.231,122.686,-8.596,77.363
'[15:07:42.762 06/11/2076]',21.099,29.304,-6.252,82.442,-89.866,58.999,64.860,93.382,-129.328,160.977,219.976,131.673,129.719,185.201,107.839,-39.463,132.454,222.711,7.033,40.244,119.170,-38.291,107.839
'[15:07:42.766 06/11/2076]',38.681,30.085,-9.768,70.720,-69.548,60.171,53.529,86.349,-119.170,168.400,201.221,143.394,165.275,164.884,86.740,-23.834,136.752,211.770,10.549,40.635,105.104,-24.225,86.740
'[15:07:42.770 06/11/2076]',52.747,36.728,-3.907,60.171,-50.012,65.641,45.324,84.786,-120.733,176.215,198.486,153.944,189.499,185.983,36.337,-4.689,142.613,202.784,4.689,41.416,76.972,20.708,36.337
'[15:07:42.773 06/11/2076]',64.860,43.761,-3.126,51.575,-30.476,74.237,26.960,86.740,-90.256,196.923,169.963,134.799,123.858,175.433,135.971,-24.225,145.739,183.248,3.907,22.271,44.542,-31.648,135.971
'[15:07:42.777 06/11/2076]',78.535,47.277,-0.391,41.026,-13.675,77.363,14.847,89.084,-103.150,191.453,178.168,137.534,118.779,162.540,143.785,-21.490,147.692,169.182,1.172,15.629,49.231,-63.297,143.785
'[15:07:42.781 06/11/2076]',85.568,45.324,5.470,39.853,-0.391,78.535,12.112,86.740,-112.527,198.095,177.387,148.083,151.600,202.393,60.952,-5.079,153.162,161.758,-4.689,16.801,47.277,7.424,60.952
'[15:07:42.785 06/11/2076]',92.601,44.151,9.768,37.509,7.033,79.316,8.596,89.866,-118.779,209.817,171.526,149.255,157.460,178.559,80.879,-5.079,159.023,148.083,-8.987,10.940,67.595,-32.039,80.879
'[15:07:42.789 06/11/2076]',104.322,46.496,17.973,27.350,15.238,79.316,0.781,101.197,-131.673,221.148,162.149,156.288,164.884,237.558,23.053,-17.582,167.228,132.063,-17.192,-7.814,96.508,7.424,23.053
'[15:07:42.793 06/11/2076]',110.965,50.794,33.602,22.662,25.397,85.958,3.516,103.932,-132.454,241.074,156.679,159.805,197.314,212.161,38.291,-23.443,178.559,124.640,-32.821,-17.192,79.316,33.211,38.291
'[15:07:42.797 06/11/2076]',127.375,55.482,39.853,9.377,40.635,97.289,5.079,89.866,-103.541,232.479,154.725,145.739,194.188,169.573,83.223,-18.364,186.764,116.435,-39.072,-10.549,50.794,-12.112,83.223
'[15:07:42.801 06/11/2076]',148.083,58.999,42.589,-1.563,56.264,114.090,0.391,77.363,-103.150,251.233,166.056,135.580,162.930,184.029,113.700,-11.722,196.532,109.402,-41.807,-1.954,22.271,-43.370,113.700
'[15:07:42.805 06/11/2076]',159.414,58.217,46.105,-11.331,69.158,123.077,-4.689,65.250,-93.382,227.399,170.745,136.361,160.586,280.147,-11.722,12.112,198.095,97.289,-45.324,3.516,23.053,42.198,-11.722
'[15:07:42.809 06/11/2076]',164.103,48.059,41.026,-4.298,72.674,124.249,-13.675,67.204,-104.322,237.949,170.354,126.203,155.507,211.770,53.529,9.377,203.175,84.786,-40.244,9.768,11.331,-26.960,53.529
'[15:07:42.813 06/11/2076]',171.526,45.714,39.072,-3.516,83.614,124.249,-22.662,67.595,-101.587,255.531,157.460,111.746,145.739,296.557,-19.536,1.563,209.035,70.330,-38.291,3.907,0.000,51.966,-19.536
'[15:07:42.816 06/11/2076]',176.215,39.853,40.244,-3.907,94.554,119.951,-29.304,68.767,-100.024,266.081,148.083,111.355,157.460,259.438,0.000,8.596,211.380,56.654,-39.463,-2.344,9.377,25.006,0.000
'[15:07:42.820 06/11/2076]',180.122,34.774,37.509,0.781,104.713,114.872,-34.383,69.158,-89.866,263.736,144.567,114.481,167.619,100.806,146.520,17.582,212.943,49.621,-36.728,0.000,3.126,-119.951,146.520
'[15:07:42.824 06/11/2076]',186.764,42.198,44.151,-12.503,116.825,119.170,-31.648,57.045,-62.515,293.040,132.454,79.316,162.540,114.481,174.261,-8.987,219.194,43.370,-43.370,-7.033,-18.755,-110.965,174.261
'[15:07:42.828 06/11/2076]',187.155,43.761,46.886,-16.020,119.170,114.090,-31.648,60.952,-61.734,262.955,148.474,80.488,135.580,165.665,134.017,-6.252,210.989,38.291,-46.105,-10.159,-7.033,-97.680,134.017
'[15:07:42.832 06/11/2076]',191.062,40.635,52.357,-18.364,121.514,114.481,-25.006,55.873,-77.753,284.835,158.242,97.289,86.349,147.302,204.347,23.443,218.022,39.853,-51.575,3.126,-23.834,-182.466,204.347
'[15:07:42.836 06/11/2076]',193.016,41.416,62.125,-18.364,132.454,119.170,-19.145,45.714,-45.714,307.888,142.613,91.819,92.210,291.868,79.316,32.039,223.101,36.337,-61.343,4.298,-127.375,49.621,79.316
'[15:07:42.840 06/11/2076]',189.890,46.886,70.720,-16.410,141.832,120.342,-21.099,50.403,-28.132,281.319,146.129,92.991,98.071,320.000,21.880,51.575,219.976,25.006,-69.939,-11.722,-159.805,128.938,21.880
'[15:07:42.844 06/11/2076]',184.029,50.012,77.363,-14.847,145.739,119.560,-18.755,50.794,-30.867,292.259,140.659,97.289,68.767,316.484,35.556,77.363,225.055,19.145,-76.581,-23.834,-169.573,105.104,35.556
'[15:07:42.848 06/11/2076]',173.089,46.886,78.926,0.781,147.302,113.309,-8.987,50.012,-7.033,298.120,126.203,91.038,100.806,150.037,164.884,91.819,233.260,16.410,-78.144,-28.523,-204.347,15.629,164.884
'[15:07:42.852 06/11/2076]',168.791,51.184,84.786,-3.516,151.600,105.885,2.344,41.416,-2.735,262.564,137.534,101.197,114.872,161.758,104.713,116.435,232.479,14.457,-84.005,-35.556,-186.374,36.337,104.713
'[15:07:42.855 06/11/2076]',148.474,47.277,80.879,10.940,134.799,92.210,0.391,61.343,-32.430,272.332,126.593,103.932,67.985,-42.979,316.874,128.547,228.571,6.252,-80.098,-49.621,-182.857,-182.466,316.874
'[15:07:42.859 06/11/2076]',149.255,57.045,87.521,-9.768,143.394,100.806,5.470,35.165,-27.350,267.253,137.924,91.819,1.172,59.780,285.226,123.077,231.697,14.847,-86.740,-47.668,-231.697,-106.276,285.226
'[15:07:42.863 06/11/2076]',147.692,64.078,89.475,-17.192,148.474,106.276,7.424,21.490,-37.900,243.419,155.116,97.289,-33.211,69.158,252.015,169.182,221.929,13.284,-88.694,-40.635,-271.551,-98.852,252.015
'[15:07:42.867 06/11/2076]',144.957,69.158,89.084,-13.284,153.553,108.230,6.642,20.708,-38.291,246.935,146.911,105.104,-42.198,-10.549,308.278,205.910,218.022,7.814,-88.303,-49.231,-315.311,-140.269,308.278
'[15:07:42.871 06/11/2076]',145.348,74.237,89.084,-15.629,161.368,107.839,9.377,13.675,-33.993,236.777,145.739,121.514,-59.780,51.575,236.777,241.074,215.287,5.861,-88.303,-49.621,-340.317,-79.707,236.777
'[15:07:42.875 06/11/2076]',133.626,71.893,84.005,-8.205,155.116,97.680,11.722,16.410,-46.886,230.916,139.096,125.812,-69.158,-49.231,291.087,277.802,207.082,-2.344,-83.223,-53.529,-317.656,-202.002,291.087
'[15:07:42.879 06/11/2076]',122.686,73.455,80.098,0.781,153.944,85.568,11.331,26.178,-43.761,237.558,114.872,122.686,-43.370,-84.005,281.709,278.584,198.095,-11.331,-79.316,-73.455,-350.867,-153.553,281.709
'[15:07:42.883 06/11/2076]',125.031,78.535,82.442,-12.894,161.368,82.442,15.629,13.675,-57.045,232.869,134.408,133.626,-79.707,-26.178,256.313,293.822,193.797,-10.940,-81.661,-79.707,-349.304,-144.567,256.313
'[15:07:42.887 06/11/2076]',125.031,81.270,82.833,-25.397,168.400,80.879,18.364,-3.907,-58.999,239.121,128.938,142.222,-117.607,44.542,179.731,344.615,185.983,-16.410,-82.051,-83.614,-329.377,-141.050,179.731
'[15:07:42.891 06/11/2076]',117.607,89.084,83.223,-30.085,170.745,78.144,17.973,-6.642,-50.403,210.208,126.203,139.096,-128.938,28.523,161.758,364.542,168.791,-28.913,-82.442,-103.932,-343.053,-139.487,161.758
'[15:07:42.895 06/11/2076]',121.123,101.197,89.084,-37.509,186.764,82.051,19.927,-15.629,-16.801,198.095,109.792,128.547,-135.189,129.719,44.933,379.780,157.460,-37.900,-88.303,-124.640,-384.078,0.781,44.933
'[15:07:42.898 06/11/2076]',115.263,94.945,85.958,-29.695,187.155,76.581,24.615,-21.099,-12.112,171.526,103.150,143.785,-171.136,7.424,144.957,426.276,139.487,-41.807,-85.177,-117.998,-355.946,-174.652,144.957
'[15:07:42.902 06/11/2076]',110.183,96.899,88.303,-28.913,194.579,76.581,28.913,-33.993,17.973,136.752,81.270,137.143,-134.799,-50.794,124.249,437.607,118.388,-50.012,-87.521,-120.733,-407.131,-114.481,124.249
'[15:07:42.906 06/11/2076]',104.713,100.806,89.084,-20.317,201.612,76.190,21.099,-24.615,29.304,151.990,52.357,113.309,-172.308,-217.241,335.238,404.396,108.620,-64.860,-88.303,-146.911,-432.137,-249.280,335.238
'[15:07:42.910 06/11/2076]',107.057,106.276,92.210,-43.761,210.989,73.846,20.317,-42.979,28.913,129.719,41.807,91.429,-185.983,-205.128,305.934,380.171,94.554,-76.972,-91.429,-156.679,-362.198,-287.570,305.934
'[15:07:42.914 06/11/2076]',92.991,98.462,83.614,-31.258,205.910,58.217,16.410,-36.728,41.807,103.932,-2.735,89.475,-190.672,-205.128,237.949,393.065,71.893,-97.680,-82.833,-159.023,-341.490,-260.611,237.949
'[15:07:42.918 06/11/2076]',84.396,97.680,80.488,-33.993,205.128,50.403,8.205,-34.383,39.072,99.634,-33.211,67.985,-214.896,-176.215,197.314,369.231,54.701,-119.951,-79.707,-170.745,-300.855,-253.187,197.314
'[15:07:42.922 06/11/2076]',82.442,96.899,77.363,-49.621,209.817,42.198,-1.172,-43.370,59.780,44.933,-53.529,56.654,-205.910,-117.216,73.846,358.681,27.741,-143.785,-76.581,-168.400,-253.968,-197.705,73.846
'[15:07:42.926 06/11/2076]',70.330,83.614,65.641,-37.118,207.082,28.523,-14.847,-36.337,62.906,-13.675,-71.502,63.687,-181.294,-184.029,38.681,368.449,-8.596,-159.805,-64.860,-153.553,-263.346,-177.778,38.681
'[15:07:42.930 06/11/2076]',64.078,75.409,58.217,-39.463,208.645,16.020,-22.662,-42.198,62.125,-17.973,-104.713,44.151,-194.188,-249.670,66.032,362.198,-33.602,-173.480,-57.436,-146.520,-251.233,-235.214,66.032
'[15:07:42.934 06/11/2076]',67.204,71.502,56.654,-58.608,218.413,7.033,-27.741,-60.171,80.879,-40.244,-128.547,22.662,-154.335,-306.325,68.767,328.205,-57.827,-181.685,-55.873,-138.706,-239.902,-234.823,68.767
'[15:07:42.938 06/11/2076]',58.217,53.919,48.059,-58.608,211.380,-12.894,-33.993,-59.780,72.283,-52.357,-155.897,21.099,-167.228,-280.928,6.252,327.033,-86.740,-187.155,-47.277,-129.719,-208.254,-216.459,6.252
'[15:07:42.941 06/11/2076]',46.886,42.979,38.681,-67.204,199.267,-30.476,-39.072,-64.860,42.589,-56.654,-168.010,0.391,-170.354,-260.611,-46.105,297.338,-110.574,-193.016,-37.900,-122.295,-122.686,-255.922,-46.105
'[15:07:42.945 06/11/2076]',37.118,36.337,32.821,-82.442,190.672,-42.198,-46.105,-74.628,42.589,-85.568,-179.731,-28.132,-185.201,-219.194,-106.667,261.001,-135.189,-196.532,-32.039,-119.170,-132.845,-182.076,-106.667
'[15:07:42.949 06/11/2076]',24.225,21.099,26.178,-76.581,180.904,-58.608,-51.184,-72.283,67.595,-119.170,-199.658,-27.350,-186.374,-161.758,-175.043,245.372,-158.242,-203.565,-25.397,-113.309,-163.321,-54.701,-175.043
'[15:07:42.953 06/11/2076]',20.317,7.424,16.020,-85.177,175.433,-73.846,-54.701,-85.568,66.032,-136.752,-216.850,-37.118,-181.685,-249.670,-131.282,239.121,-173.871,-207.082,-15.238,-101.978,-148.474,-120.733,-131.282
'[15:07:42.957 06/11/2076]',11.722,4.298,10.159,-100.806,169.573,-82.833,-59.780,-98.071,62.515,-145.348,-226.227,-74.237,-187.546,-202.784,-192.625,200.440,-187.546,-214.505,-9.377,-106.276,-130.110,-62.515,-192.625
'[15:07:42.961 06/11/2076]',7.424,-5.079,-3.516,-102.369,159.414,-92.210,-71.111,-99.634,56.264,-161.368,-228.181,-88.694,-188.718,-215.678,-188.327,171.917,-196.923,-218.413,4.298,-107.839,-104.322,-75.409,-188.327
'[15:07:42.965 06/11/2076]',8.596,-14.066,-16.020,-109.011,154.725,-98.071,-70.330,-116.435,33.211,-151.600,-226.618,-96.117,-177.778,-318.437,-104.713,160.195,-198.095,-210.598,16.801,-88.694,-57.436,-207.863,-104.713
'[15:07:42.969 06/11/2076]',-0.781,-23.443,-22.271,-102.369,140.659,-103.150,-68.767,-117.607,16.410,-148.474,-218.803,-105.885,-139.878,-337.582,-109.402,130.501,-201.221,-202.002,23.053,-85.568,-67.204,-152.381,-109.402
'[15:07:42.973 06/11/2076]',-9.377,-26.178,-27.741,-101.978,122.295,-106.276,-71.502,-110.183,14.457,-157.460,-224.664,-113.700,-182.076,-316.484,-92.210,109.792,-202.784,-196.532,28.523,-91.429,-39.463,-173.089,-92.210
'[15:07:42.977 06/11/2076]',-15.629,-29.695,-24.225,-97.289,109.011,-112.137,-64.469,-99.634,4.689,-154.335,-231.697,-117.998,-157.070,-316.093,-107.839,81.270,-198.877,-184.029,25.006,-99.243,2.344,-155.116,-107.839
'[15:07:42.980 06/11/2076]',-26.960,-34.774,-20.317,-95.336,91.429,-116.044,-48.449,-105.885,3.907,-163.321,-230.134,-134.408,-169.182,-235.604,-185.592,66.813,-197.705,-175.433,21.099,-89.084,-5.079,-51.966,-185.592
'[15:07:42.984 06/11/2076]',-29.695,-34.774,-18.364,-100.024,79.316,-108.620,-43.761,-109.792,-6.642,-182.466,-210.598,-141.441,-171.526,-224.274,-206.300,61.343,-195.751,-163.321,19.145,-75.800,46.886,-89.866,-206.300
'[15:07:42.988 06/11/2076]',-35.165,-33.602,-14.847,-95.726,73.065,-99.243,-45.324,-109.402,-3.907,-182.076,-215.678,-142.613,-175.433,-190.281,-230.525,51.966,-196.142,-154.725,15.629,-66.813,29.304,-23.053,-230.525
'[15:07:42.992 06/11/2076]',-44.933,-29.695,-8.596,-98.852,60.952,-91.429,-35.556,-117.216,-14.847,-172.308,-199.267,-155.507,-174.261,-193.797,-202.784,28.913,-192.625,-141.050,9.377,-54.701,19.927,-10.549,-202.784
'[15:07:42.996 06/11/2076]',-60.171,-27.741,-5.470,-82.442,43.761,-85.958,-30.085,-104.322,-29.695,-186.374,-185.983,-159.414,-181.685,-263.736,-131.673,16.020,-194.579,-125.421,6.252,-53.138,80.098,-114.481,-131.673
'[15:07:43.000 06/11/2076]',-73.065,-25.397,-1.172,-67.985,28.913,-78.926,-26.178,-92.210,-30.085,-163.712,-197.705,-158.632,-165.665,-229.353,-162.540,6.642,-190.281,-111.746,1.954,-55.092,105.885,-65.641,-162.540
'[15:07:43.004 06/11/2076]',-84.005,-21.880,3.126,-57.045,15.238,-73.846,-15.238,-86.349,-19.145,-177.387,-196.532,-155.897,-125.812,-171.526,-238.339,-12.112,-187.937,-100.024,-2.344,-50.012,101.587,59.780,-238.339
'[15:07:43.008 06/11/2076]',-99.634,-25.788,0.391,-31.258,-7.033,-69.158,-13.284,-67.204,-32.821,-166.056,-193.407,-166.056,-108.620,-313.358,-92.601,-43.370,-183.248,-85.958,0.391,-50.403,117.998,-48.840,-92.601
'[15:07:43.012 06/11/2076]',-100.806,-16.801,1.172,-33.211,-14.457,-57.827,-10.159,-66.422,-41.026,-175.824,-173.871,-169.182,-72.674,-259.829,-155.897,-71.111,-175.433,-72.283,-0.391,-44.542,138.706,23.443,-155.897
'[15:07:43.016 06/11/2076]',-100.806,-15.238,5.079,-29.695,-21.099,-49.621,-3.516,-66.813,-42.589,-157.070,-171.136,-147.302,-73.065,-238.339,-141.441,-64.860,-162.149,-56.264,-4.298,-32.039,157.460,15.629,-141.441
'[15:07:43.020 06/11/2076]',-99.243,-14.457,4.689,-28.132,-26.569,-44.151,1.954,-68.376,-52.747,-172.698,-146.129,-126.593,-66.032,-217.241,-164.103,-51.184,-153.553,-39.463,-3.907,-17.973,206.300,-14.847,-164.103
'[15:07:43.023 06/11/2076]',-103.541,-9.768,0.781,-25.006,-33.993,-38.681,-3.907,-60.562,-77.753,-168.400,-130.891,-125.812,-100.806,-211.380,-136.361,-54.310,-146.911,-34.383,0.000,-17.973,298.510,-131.673,-136.361
'[15:07:43.027 06/11/2076]',-109.011,-9.768,0.391,-16.410,-37.118,-33.993,-12.112,-50.403,-58.217,-148.864,-151.990,-130.891,-121.123,-169.963,-117.216,-81.661,-140.269,-33.602,0.391,-26.960,263.736,-59.780,-117.216
'[15:07:43.031 06/11/2076]',-111.746,-16.020,-8.987,-1.172,-40.635,-39.853,-9.768,-46.105,-67.595,-151.990,-142.222,-114.090,-90.256,-186.374,-121.514,-78.144,-134.017,-27.741,9.768,-17.582,264.127,-46.496,-121.514
'[15:07:43.035 06/11/2076]',-114.090,-18.755,-11.331,3.126,-42.979,-40.244,-6.642,-50.012,-82.442,-137.924,-136.361,-117.607,-87.131,-234.823,-47.277,-104.713,-127.766,-24.615,12.112,-17.582,285.617,-101.587,-47.277
'[15:07:43.039 06/11/2076]',-121.905,-18.755,-12.503,5.470,-53.138,-44.542,-10.940,-37.509,-91.038,-146.520,-134.408,-102.369,-36.728,-201.612,-120.342,-116.435,-123.077,-25.397,13.284,-30.867,282.491,-1.563,-120.342
'[15:07:43.043 06/11/2076]',-127.375,-20.317,-16.020,12.112,-62.515,-47.277,-6.642,-33.993,-87.131,-151.600,-137.143,-85.177,-67.595,-121.905,-178.559,-93.382,-116.435,-19.927,16.801,-27.350,282.882,37.509,-178.559
'[15:07:43.047 06/11/2076]',-124.249,-20.317,-14.457,10.159,-66.032,-39.853,3.907,-46.496,-112.137,-144.567,-103.932,-89.475,-65.250,-107.057,-178.950,-99.243,-109.011,-6.252,15.238,-12.894,307.106,0.781,-178.950
'[15:07:43.051 06/11/2076]',-122.295,-24.225,-16.801,17.973,-68.376,-33.993,0.000,-42.589,-123.077,-144.567,-94.945,-74.628,-47.277,-141.050,-181.685,-66.422,-107.057,-2.344,17.582,-2.344,296.166,-25.006,-181.685
'[15:07:43.055 06/11/2076]',-118.388,-25.006,-11.331,17.973,-59.389,-30.476,1.563,-47.668,-96.117,-151.209,-108.230,-69.158,14.457,-188.327,-205.128,-46.886,-105.495,-0.781,12.112,3.126,300.073,-22.662,-205.128
'[15:07:43.059 06/11/2076]',-117.216,-28.913,-10.159,28.913,-58.999,-29.695,6.252,-43.761,-112.918,-114.872,-103.541,-71.893,-39.463,-194.188,-102.759,-67.204,-99.243,5.470,10.940,10.940,261.392,-67.204,-102.759
'[15:07:43.063 06/11/2076]',-119.560,-27.350,-7.424,28.523,-57.436,-33.211,6.252,-40.635,-101.978,-133.236,-110.183,-75.800,18.364,-317.656,-58.217,-64.078,-101.978,3.126,8.205,12.112,305.543,-171.136,-58.217
'[15:07:43.066 06/11/2076]',-120.733,-31.258,-6.642,30.867,-62.125,-36.728,8.987,-37.118,-91.429,-125.421,-110.965,-63.687,9.377,-218.803,-123.077,-59.780,-95.336,3.516,7.424,12.503,259.048,-52.747,-123.077
'[15:07:43.070 06/11/2076]',-119.951,-33.993,-8.987,37.509,-68.376,-38.291,14.847,-33.602,-108.620,-111.355,-90.256,-51.966,-18.755,-235.604,-41.807,-66.813,-87.521,8.205,9.768,19.927,242.637,-105.104,-41.807
'[15:07:43.074 06/11/2076]',-114.090,-35.165,-15.629,36.728,-75.018,-38.681,17.192,-32.039,-137.534,-103.150,-64.469,-57.827,-12.894,-240.684,-39.072,-70.720,-82.051,14.457,16.410,21.099,275.849,-159.805,-39.072
'[15:07:43.078 06/11/2076]',-113.309,-40.244,-19.927,38.291,-84.005,-39.463,16.801,-26.960,-115.653,-109.792,-78.144,-59.389,-16.020,-86.349,-191.062,-69.939,-78.926,14.066,20.708,14.066,261.392,0.781,-191.062
'[15:07:43.082 06/11/2076]',-101.587,-42.589,-21.880,42.979,-85.958,-33.993,24.615,-28.132,-115.653,-88.303,-67.595,-48.059,-12.894,-112.527,-128.156,-66.813,-65.250,26.960,22.662,22.271,207.863,-3.516,-128.156
'[15:07:43.086 06/11/2076]',-92.601,-48.059,-30.476,50.012,-91.819,-30.476,26.178,-24.225,-127.766,-90.256,-54.310,-28.523,-8.205,-120.733,-128.938,-44.151,-60.562,37.900,31.258,36.728,232.088,-61.734,-128.938
'[15:07:43.090 06/11/2076]',-87.521,-48.059,-33.211,53.919,-98.071,-23.443,21.099,-13.675,-102.369,-90.647,-71.893,-34.383,12.112,-179.731,-71.502,-61.343,-60.952,36.337,33.993,23.443,196.923,-63.687,-71.502
'[15:07:43.094 06/11/2076]',-75.018,-40.244,-29.304,39.853,-99.243,-14.457,26.569,-16.801,-112.527,-85.568,-47.277,-28.523,38.291,-225.836,-13.675,-74.628,-52.747,45.714,30.085,18.364,196.923,-115.653,-13.675
'[15:07:43.098 06/11/2076]',-64.860,-42.979,-36.728,42.589,-101.587,-17.582,32.039,-14.457,-135.580,-100.024,-25.788,-10.940,19.536,-252.405,23.834,-64.860,-51.575,49.621,37.509,30.476,249.280,-237.167,23.834
'[15:07:43.102 06/11/2076]',-59.780,-50.794,-44.151,56.264,-100.806,-26.569,31.648,-1.954,-117.607,-78.926,-54.310,-2.735,33.993,-185.983,-42.589,-60.171,-48.449,41.416,44.933,20.317,197.314,-107.839,-42.589
'[15:07:43.105 06/11/2076]',-48.059,-42.198,-42.198,28.132,-94.164,-29.304,31.258,-12.112,-134.017,-96.117,-31.648,-1.954,53.919,-143.785,-120.342,-53.919,-43.761,37.509,42.979,13.284,267.253,-133.236,-120.342
'[15:07:43.109 06/11/2076]',-33.602,-39.463,-51.966,25.397,-84.786,-30.476,25.006,-9.768,-157.070,-81.270,-8.596,6.252,12.894,-114.481,-72.674,-66.422,-33.993,39.853,52.747,22.662,262.564,-184.811,-72.674
'[15:07:43.113 06/11/2076]',-19.536,-39.072,-59.389,32.430,-71.111,-28.523,16.410,-1.954,-132.454,-75.409,-17.973,12.112,18.364,-75.409,-115.653,-41.026,-30.867,38.681,60.171,30.085,185.983,-100.415,-115.653
'[15:07:43.117 06/11/2076]',-3.126,-34.774,-55.873,12.112,-62.125,-21.880,14.066,-10.940,-159.414,-59.389,5.861,13.284,71.502,-132.454,-98.852,-39.853,-22.662,40.635,56.654,32.430,217.631,-168.010,-98.852
'[15:07:43.121 06/11/2076]',7.814,-38.681,-62.906,20.317,-58.217,-21.880,5.079,2.344,-148.474,-72.283,18.755,34.383,28.913,-141.050,-34.774,-19.927,-16.410,39.853,63.687,37.900,164.884,-199.267,-34.774
'[15:07:43.125 06/11/2076]',13.284,-42.979,-67.985,27.350,-55.092,-23.834,-0.391,10.940,-147.692,-71.111,21.490,30.867,13.675,-66.422,-94.164,-18.364,-12.503,30.867,68.767,41.807,130.501,-118.779,-94.164
'[15:07:43.129 06/11/2076]',21.099,-45.324,-72.283,11.722,-51.966,-26.178,-7.033,1.954,-152.381,-79.316,27.741,18.364,69.548,-78.535,-163.321,-12.894,-10.159,22.271,73.065,41.416,146.911,-101.978,-163.321
'[15:07:43.133 06/11/2076]',28.913,-50.794,-80.879,7.424,-50.012,-29.695,-15.238,0.781,-144.957,-71.893,24.225,23.834,-35.556,-69.548,-61.343,-0.781,-4.689,12.894,81.661,46.496,140.269,-220.366,-61.343
'[15:07:43.137 06/11/2076]',39.072,-51.575,-81.270,-4.689,-38.681,-28.132,-17.192,-13.675,-107.839,-55.873,1.172,12.112,32.821,-136.752,-50.794,3.516,-1.563,6.642,82.051,53.919,43.370,-144.957,-50.794
'[15:07:43.141 06/11/2076]',37.118,-50.794,-84.786,-8.205,-41.416,-29.304,-23.834,-10.940,-109.011,-19.927,-18.364,-10.549,-29.304,-88.694,-40.244,-0.391,2.344,-1.563,85.568,47.277,9.768,-137.924,-40.244
'[15:07:43.145 06/11/2076]',33.993,-52.747,-87.912,-11.331,-51.966,-28.913,-28.523,-7.814,-120.733,-1.563,-10.159,-22.271,-30.476,-119.951,4.298,-8.596,10.549,-8.596,88.694,37.900,0.000,-171.917,4.298
'[15:07:43.148 06/11/2076]',37.900,-52.357,-88.303,-14.066,-50.403,-24.615,-25.788,-15.238,-117.216,4.298,-3.516,-15.629,-25.006,-80.879,-41.026,13.675,23.053,-7.814,89.084,53.138,-32.039,-121.514,-41.026
'[15:07:43.152 06/11/2076]',39.072,-54.310,-92.210,-12.112,-51.184,-23.443,-27.741,-16.410,-129.719,0.781,4.298,2.344,-21.099,10.940,-160.977,50.012,33.602,-12.503,92.991,64.469,-15.629,-61.734,-160.977
'[15:07:43.156 06/11/2076]',33.602,-60.171,-98.071,-5.861,-61.343,-27.741,-39.072,-1.563,-157.851,15.238,12.112,16.410,-62.515,105.885,-218.803,62.125,44.151,-23.834,98.852,52.357,8.205,-39.072,-218.803
'[15:07:43.160 06/11/2076]',35.165,-56.264,-95.726,-9.377,-51.966,-28.523,-42.198,-1.563,-124.249,15.238,-4.689,17.582,-37.509,41.807,-149.255,49.621,54.701,-30.867,96.508,43.370,-33.602,-36.728,-149.255
'[15:07:43.164 06/11/2076]',28.913,-58.217,-96.899,2.735,-51.966,-33.602,-39.072,2.735,-126.593,33.211,-10.940,35.556,-35.946,10.549,-115.263,72.283,69.548,-33.993,97.680,43.370,-71.111,-40.635,-115.263
'[15:07:43.168 06/11/2076]',23.443,-52.747,-91.038,1.563,-56.264,-28.523,-37.118,5.079,-131.282,54.310,10.940,22.662,-55.873,-67.595,33.211,47.668,85.177,-35.556,91.819,31.258,-64.469,-165.665,33.211
'[15:07:43.172 06/11/2076]',25.006,-37.118,-72.674,-17.582,-46.886,-14.457,-30.867,-9.377,-112.527,73.846,27.350,1.954,-37.118,-115.263,115.653,27.741,101.978,-32.821,73.455,21.099,-77.363,-204.347,115.653
'[15:07:43.176 06/11/2076]',26.960,-30.476,-67.204,-12.112,-39.072,-1.172,-34.383,-7.033,-114.481,72.283,47.668,12.894,-33.993,-69.548,59.780,63.297,112.918,-28.913,67.985,31.258,-94.554,-167.619,59.780
'[15:07:43.180 06/11/2076]',29.695,-24.615,-61.734,-12.112,-29.304,4.298,-35.165,-8.987,-92.601,81.661,44.542,8.987,-43.370,0.391,-2.735,89.084,125.031,-32.430,62.515,32.039,-112.527,-114.090,-2.735
'[15:07:43.184 06/11/2076]',33.993,-21.880,-55.482,-10.159,-12.894,10.159,-39.463,-10.549,-70.330,120.342,24.615,8.596,-79.707,74.237,-23.443,113.700,136.361,-37.118,56.264,27.350,-159.414,-44.542,-23.443
'[15:07:43.188 06/11/2076]',39.463,-24.225,-61.734,3.126,0.000,5.861,-46.105,-1.954,-77.753,123.858,38.291,38.291,-78.144,8.596,40.635,152.381,145.739,-40.635,62.515,34.774,-157.851,-135.189,40.635
'[15:07:43.191 06/11/2076]',42.979,-20.708,-59.780,1.172,15.629,3.907,-45.714,-10.159,-34.774,108.620,30.476,25.788,-49.231,-74.628,104.322,151.209,148.864,-48.059,60.562,32.430,-198.486,-157.070,104.322
'[15:07:43.195 06/11/2076]',46.886,-17.973,-62.906,1.563,23.053,3.126,-49.621,-8.205,-28.913,119.170,42.198,19.536,-87.521,-58.608,145.348,153.944,152.381,-51.966,63.687,28.132,-202.393,-202.784,145.348
'[15:07:43.199 06/11/2076]',54.701,-20.317,-64.860,8.205,37.900,-1.172,-51.575,-6.252,-7.814,96.117,43.761,38.681,-55.482,-64.078,106.276,185.201,150.037,-57.045,65.641,29.695,-216.068,-166.447,106.276
'[15:07:43.203 06/11/2076]',63.297,-17.973,-60.562,-0.391,51.575,0.391,-47.277,-19.927,5.861,113.700,45.714,39.463,-41.807,-18.755,65.250,200.830,151.209,-59.389,61.343,35.556,-230.134,-124.640,65.250
'[15:07:43.207 06/11/2076]',61.734,-17.582,-62.515,0.391,53.919,-1.954,-53.138,-16.410,10.549,121.514,43.370,25.006,-73.455,75.800,1.563,197.314,146.911,-67.595,63.297,18.755,-234.432,-55.482,1.563
'[15:07:43.211 06/11/2076]',67.595,-16.020,-61.343,-8.205,62.906,-0.391,-55.873,-24.615,4.689,124.249,64.469,20.708,-100.806,153.553,-20.317,182.857,142.222,-69.158,62.125,14.457,-248.889,-8.205,-20.317
'[15:07:43.215 06/11/2076]',69.548,-22.271,-61.734,-11.722,68.767,-3.907,-52.357,-37.900,9.377,117.998,78.144,28.132,-40.635,60.171,50.012,165.275,134.017,-69.548,62.515,25.397,-226.618,-82.051,50.012
'[15:07:43.219 06/11/2076]',69.939,-21.099,-58.608,-25.006,80.098,-7.033,-49.231,-58.217,60.171,97.289,63.297,12.112,-28.523,35.946,69.548,157.070,120.733,-79.707,59.389,20.708,-230.134,-89.475,69.548
'[15:07:43.223 06/11/2076]',63.297,-21.099,-66.813,-21.099,80.879,-18.755,-60.952,-46.496,82.833,64.078,50.794,19.145,-48.449,38.681,78.144,150.427,103.541,-102.759,67.595,4.298,-200.830,-121.905,78.144
'[15:07:43.227 06/11/2076]',58.999,-7.814,-60.952,-39.463,91.819,-20.708,-59.389,-59.780,123.077,94.945,4.689,-12.112,-32.821,-16.410,144.176,115.653,100.806,-121.905,61.734,-19.145,-173.089,-172.698,144.176
'[15:07:43.230 06/11/2076]',54.701,-0.781,-62.515,-46.105,98.462,-25.006,-55.092,-72.674,170.354,83.223,-18.755,-29.304,-26.178,82.442,39.072,109.792,89.475,-139.096,63.297,-26.960,-184.420,-54.701,39.072
'[15:07:43.234 06/11/2076]',55.482,9.377,-68.376,-50.403,105.495,-21.880,-61.343,-75.018,179.731,82.051,-17.973,-38.681,-55.482,47.668,104.713,107.839,77.363,-147.692,69.158,-34.774,-155.507,-157.851,104.713
'[15:07:43.238 06/11/2076]',65.250,20.317,-64.469,-71.502,122.686,-11.331,-65.250,-94.554,202.784,74.237,-19.927,-43.761,-26.178,94.164,46.105,97.289,61.343,-150.427,65.250,-38.291,-142.222,-107.839,46.105
'[15:07:43.242 06/11/2076]',63.687,23.053,-71.111,-73.065,129.328,-16.410,-70.330,-98.071,222.711,33.602,-21.490,-42.198,-4.298,139.487,-44.542,100.806,34.383,-153.162,71.893,-37.900,-156.288,-21.490,-44.542
'[15:07:43.246 06/11/2076]',60.171,24.615,-75.800,-71.502,132.845,-24.225,-76.972,-92.991,226.227,11.722,-23.443,-42.979,-31.258,0.781,98.462,102.369,10.549,-156.288,76.581,-45.324,-132.454,-198.486,98.462
'[15:07:43.250 06/11/2076]',59.780,29.304,-71.111,-87.912,144.957,-26.960,-77.363,-108.620,278.193,-10.159,-54.310,-56.654,14.066,10.549,43.761,85.958,-7.033,-162.540,71.893,-56.264,-159.023,-96.117,43.761
'[15:07:43.254 06/11/2076]',57.436,24.615,-73.065,-95.336,153.162,-39.853,-78.926,-118.388,312.967,-41.807,-81.661,-59.780,18.364,62.515,-47.668,94.164,-28.523,-172.698,73.846,-57.436,-184.420,9.377,-47.668
'[15:07:43.258 06/11/2076]',48.449,15.629,-80.879,-89.084,146.520,-53.529,-84.005,-113.700,309.841,-71.893,-83.223,-69.939,21.490,1.172,-18.364,78.144,-49.231,-179.731,81.661,-61.734,-160.977,-43.761,-18.364
'[15:07:43.262 06/11/2076]',48.059,11.722,-84.005,-101.587,148.864,-58.999,-87.912,-126.593,325.470,-89.475,-96.508,-91.429,28.913,45.324,-89.084,60.562,-65.641,-182.857,84.786,-66.422,-125.421,-10.159,-89.084
'[15:07:43.266 06/11/2076]',42.979,-3.126,-93.773,-99.243,144.176,-73.065,-91.819,-131.282,305.543,-114.090,-98.462,-75.409,27.741,56.654,-145.348,75.409,-83.614,-184.420,94.554,-51.966,-117.998,14.847,-145.348
'[15:07:43.270 06/11/2076]',37.118,-13.284,-102.369,-89.084,139.487,-83.614,-89.866,-133.626,302.027,-108.230,-108.230,-78.926,14.457,-83.223,10.940,63.687,-94.945,-180.904,103.150,-44.151,-125.031,-115.653,10.940
'[15:07:43.273 06/11/2076]',35.165,-10.549,-101.978,-107.057,138.706,-83.614,-89.866,-149.255,317.656,-124.249,-119.170,-107.057,-19.145,11.331,-63.297,36.728,-110.183,-178.950,102.759,-49.621,-96.899,-60.171,-63.297
'[15:07:43.277 06/11/2076]',25.788,-17.582,-107.057,-105.104,125.421,-94.164,-92.601,-141.832,297.729,-153.944,-117.998,-102.369,-5.079,-33.211,-71.111,32.430,-130.110,-173.871,107.839,-47.277,-71.502,-85.958,-71.111
'[15:07:43.281 06/11/2076]',24.615,-21.099,-105.104,-108.230,117.216,-100.415,-77.363,-148.864,307.497,-180.904,-110.574,-103.541,53.138,-32.430,-119.170,9.768,-145.348,-157.460,105.885,-40.244,-84.786,1.563,-119.170
'[15:07:43.285 06/11/2076]',15.238,-35.556,-107.448,-96.117,95.336,-112.527,-74.628,-131.673,291.087,-212.161,-111.746,-89.866,65.250,-61.343,-148.083,20.317,-166.838,-143.394,108.230,-34.774,-19.536,-48.059,-148.083
'[15:07:43.289 06/11/2076]',7.814,-35.946,-95.336,-109.011,74.628,-118.779,-67.595,-120.733,277.802,-202.002,-116.825,-97.289,47.668,-73.065,-88.303,-25.397,-178.950,-128.938,96.117,-46.886,-30.476,-39.463,-88.303
'[15:07:43.293 06/11/2076]',2.735,-41.026,-92.991,-99.243,59.780,-128.547,-57.045,-105.104,282.100,-193.797,-135.580,-91.429,-10.940,-72.283,-20.708,-35.946,-190.281,-115.653,93.773,-42.589,-49.621,-57.827,-20.708
'[15:07:43.297 06/11/2076]',-0.781,-40.635,-89.084,-103.150,48.059,-132.454,-43.761,-106.276,272.332,-200.049,-129.719,-98.852,-48.840,14.847,-87.912,-35.556,-195.751,-105.495,89.866,-24.225,-35.165,-23.053,-87.912
'[15:07:43.301 06/11/2076]',3.126,-41.026,-85.958,-108.230,43.370,-130.501,-42.979,-102.369,253.578,-214.896,-115.263,-88.694,-58.217,63.687,-145.348,-26.178,-200.049,-105.495,86.740,-5.079,-5.861,-17.192,-145.348
'[15:07:43.305 06/11/2076]',-6.642,-46.105,-91.038,-84.396,30.867,-136.752,-47.668,-74.628,239.121,-227.790,-118.388,-66.813,-31.258,-12.503,-109.792,-21.099,-199.658,-112.137,91.819,7.033,-11.722,-35.556,-109.792
'[15:07:43.309 06/11/2076]',-3.126,-39.072,-84.786,-90.256,31.258,-130.891,-43.370,-75.018,219.976,-234.432,-100.806,-67.985,8.987,32.039,-187.155,-37.900,-189.109,-112.527,85.568,23.053,23.443,8.596,-187.155
'[15:07:43.313 06/11/2076]',-10.159,-42.589,-84.786,-72.283,19.145,-131.673,-50.794,-47.277,212.552,-240.684,-105.885,-55.092,28.523,-33.602,-129.719,-55.873,-184.029,-116.044,85.568,23.834,51.966,-43.370,-129.719
'[15:07:43.316 06/11/2076]',-7.424,-37.509,-75.018,-73.455,19.927,-125.031,-46.105,-42.589,221.148,-208.645,-123.077,-51.575,17.582,-39.072,-64.860,-76.190,-172.698,-112.527,75.800,25.788,26.178,-30.476,-64.860
'[15:07:43.320 06/11/2076]',-6.252,-35.946,-71.111,-64.078,15.238,-123.077,-41.416,-29.304,186.764,-210.989,-107.057,-17.192,13.284,87.912,-198.486,-52.357,-168.010,-106.667,71.893,37.509,103.541,12.112,-198.486
'[15:07:43.324 06/11/2076]',-11.331,-34.383,-65.641,-47.668,5.470,-115.263,-43.370,-7.814,186.374,-196.142,-110.574,-17.973,-25.006,51.966,-79.316,-86.349,-162.930,-103.932,66.422,32.039,117.998,-64.078,-79.316
'[15:07:43.328 06/11/2076]',-16.410,-26.569,-57.436,-45.714,-2.344,-106.667,-40.635,2.344,162.930,-178.168,-101.978,-18.364,0.000,86.740,-120.342,-102.369,-155.897,-99.634,58.217,30.476,122.686,2.735,-120.342
'[15:07:43.332 06/11/2076]',-17.192,-21.099,-47.668,-32.039,-12.503,-94.164,-30.085,16.410,133.236,-157.070,-73.455,12.112,15.629,53.919,-45.324,-110.183,-138.706,-82.442,48.449,40.244,138.706,-43.370,-45.324
'[15:07:43.336 06/11/2076]',-12.503,-15.629,-39.853,-22.662,-17.192,-74.628,-21.099,21.099,145.348,-144.957,-67.595,20.317,71.893,28.523,-34.383,-113.700,-123.468,-67.204,40.635,47.277,114.872,6.252,-34.383
'[15:07:43.340 06/11/2076]',-16.410,-6.252,-29.695,-17.973,-35.556,-54.701,-16.020,34.383,136.361,-131.282,-67.204,30.085,78.926,53.919,-44.151,-122.295,-109.011,-58.217,30.476,39.072,128.547,39.072,-44.151
'[15:07:43.344 06/11/2076]',-19.536,1.563,-19.927,-6.642,-56.654,-34.383,-5.079,51.575,127.766,-104.322,-69.158,51.575,7.814,207.473,-87.131,-123.468,-87.521,-41.416,20.708,31.648,126.593,123.468,-87.131
'[15:07:43.348 06/11/2076]',-17.973,8.205,-8.205,6.252,-72.674,-14.847,14.066,61.343,132.454,-103.541,-62.125,70.720,51.575,141.441,-43.370,-112.918,-68.767,-21.099,8.987,34.774,162.930,66.422,-43.370
'[15:07:43.352 06/11/2076]',-25.397,10.940,3.907,19.927,-100.415,-0.391,30.085,79.707,104.713,-66.813,-57.045,98.071,41.416,136.752,11.722,-112.918,-48.449,0.391,-3.126,32.039,157.070,58.217,11.722
'[15:07:43.355 06/11/2076]',-25.006,22.662,13.675,23.834,-111.746,12.503,37.118,96.899,90.647,-49.231,-44.151,109.792,26.178,196.923,9.768,-126.984,-26.960,15.238,-12.894,17.973,153.553,105.104,9.768
'[15:07:43.359 06/11/2076]',-10.940,35.556,23.834,16.410,-109.011,34.774,46.105,92.601,72.283,-44.933,-9.768,123.468,78.535,151.990,36.337,-127.375,-7.033,41.026,-23.053,25.006,177.778,60.562,36.337
'[15:07:43.363 06/11/2076]',1.172,40.244,28.132,12.503,-107.839,53.919,47.668,87.912,48.449,-25.397,10.549,132.845,68.376,247.326,-32.039,-116.825,2.735,59.780,-27.350,37.118,178.559,110.965,-32.039
'[15:07:43.367 06/11/2076]',6.642,45.324,29.304,14.066,-108.230,64.469,46.496,93.382,26.178,-23.834,42.198,151.600,50.403,273.504,-9.768,-117.216,13.675,72.283,-28.523,37.900,156.288,119.560,-9.768
'[15:07:43.371 06/11/2076]',14.066,51.184,34.774,8.596,-102.369,77.363,49.231,85.177,27.741,-14.457,53.138,160.586,62.515,318.828,-44.933,-107.839,24.615,86.349,-33.993,41.026,149.255,167.228,-44.933
'[15:07:43.375 06/11/2076]',8.987,49.231,33.211,19.927,-110.183,77.363,49.231,96.508,13.284,0.391,53.919,168.791,41.416,211.770,82.051,-99.243,27.741,94.945,-32.430,44.151,132.845,48.449,82.051
'[15:07:43.379 06/11/2076]',3.126,54.701,35.946,28.523,-113.700,79.707,50.794,106.276,-8.987,47.668,66.032,162.149,28.523,178.168,180.904,-121.123,41.026,106.667,-35.165,31.648,111.746,14.066,180.904
'[15:07:43.383 06/11/2076]',10.940,62.125,40.244,16.410,-102.369,87.912,53.529,92.601,-12.894,57.045,77.363,174.652,57.827,192.625,145.739,-101.197,51.184,120.342,-39.463,33.993,139.487,8.596,145.739
'[15:07:43.387 06/11/2076]',17.973,64.469,44.542,13.284,-96.117,93.382,57.827,86.349,-33.211,76.581,89.475,194.579,55.873,191.453,152.772,-73.455,58.217,133.236,-43.761,42.589,160.977,-37.900,152.772
'[15:07:43.391 06/11/2076]',12.894,70.720,52.357,17.582,-96.117,100.024,58.608,91.819,-51.184,89.475,114.481,188.327,60.562,182.076,204.737,-106.276,66.032,144.176,-51.575,30.085,159.023,-41.026,204.737
'[15:07:43.395 06/11/2076]',14.066,77.753,58.608,8.596,-91.819,104.713,59.389,87.131,-63.687,75.409,137.143,191.844,64.469,282.491,91.429,-97.680,73.455,150.818,-57.827,24.615,155.897,64.078,91.429
'[15:07:43.398 06/11/2076]',14.066,75.800,60.952,16.020,-87.912,108.230,62.125,85.568,-63.687,78.535,140.269,208.645,74.628,189.890,167.228,-67.985,82.051,157.460,-60.171,33.211,135.971,-6.642,167.228
'[15:07:43.402 06/11/2076]',15.238,76.190,66.813,26.569,-81.270,110.965,64.469,91.429,-70.330,112.527,137.143,214.896,76.972,125.812,239.902,-49.621,91.429,162.149,-66.032,31.648,83.614,-21.880,239.902
'[15:07:43.406 06/11/2076]',15.238,82.833,68.376,20.708,-74.628,113.309,60.171,90.256,-70.330,135.189,128.938,210.208,77.753,166.838,210.208,-51.184,99.243,159.023,-67.595,14.066,80.879,21.880,210.208
'[15:07:43.410 06/11/2076]',10.940,81.270,65.641,27.350,-77.753,108.620,55.873,99.243,-84.005,143.785,126.984,222.711,102.369,125.421,210.989,-29.695,102.759,160.195,-64.860,3.907,92.991,0.391,210.989
'[15:07:43.414 06/11/2076]',8.987,75.800,67.204,38.291,-74.237,102.369,64.469,98.462,-84.005,176.215,113.700,225.446,48.840,151.990,262.955,-32.039,114.481,166.447,-66.422,2.735,60.562,4.689,262.955
'[15:07:43.418 06/11/2076]',7.033,75.409,73.065,30.476,-71.893,102.369,68.376,88.694,-102.369,180.513,137.143,212.943,43.761,170.745,250.842,-37.509,124.640,168.010,-72.283,-4.298,64.860,16.410,250.842
'[15:07:43.422 06/11/2076]',7.033,75.018,74.628,21.490,-69.158,105.495,63.297,80.488,-111.746,166.056,153.944,212.552,50.012,168.791,216.068,-14.457,130.891,166.447,-73.846,-2.735,64.078,17.582,216.068
'[15:07:43.426 06/11/2076]',15.629,72.283,76.972,21.490,-56.264,110.574,61.734,71.893,-119.170,176.996,163.321,211.770,10.549,159.414,243.810,18.364,137.534,170.745,-76.190,9.377,51.966,-39.853,243.810
'[15:07:43.430 06/11/2076]',18.364,71.111,78.535,25.788,-47.277,110.965,61.343,70.330,-111.355,164.884,170.745,202.393,47.668,78.926,265.299,32.821,139.487,169.573,-77.753,7.424,18.755,-41.026,265.299
'[15:07:43.434 06/11/2076]',20.708,70.330,78.144,27.350,-41.807,110.965,58.217,71.502,-99.634,172.698,164.884,197.705,60.952,67.985,266.081,40.244,141.832,169.573,-77.363,5.079,15.238,-35.556,266.081
'[15:07:43.438 06/11/2076]',25.397,62.906,73.065,37.118,-35.946,102.759,55.092,77.753,-103.150,177.387,164.884,208.645,58.999,110.965,229.353,46.496,141.832,168.400,-72.283,8.205,12.112,7.814,229.353
'[15:07:43.441 06/11/2076]',27.350,58.999,64.860,36.337,-33.602,93.382,51.575,78.144,-107.448,178.950,156.288,192.625,56.654,138.315,198.486,25.397,136.361,160.977,-64.078,3.907,21.880,33.993,198.486
'[15:07:43.445 06/11/2076]',32.039,58.999,57.827,23.053,-30.085,85.177,44.933,73.065,-110.965,164.103,154.725,179.731,53.919,221.538,106.276,5.079,127.766,152.772,-57.045,1.172,37.900,100.024,106.276
'[15:07:43.449 06/11/2076]',37.118,53.138,44.933,17.192,-28.913,75.018,38.291,69.158,-128.938,140.659,157.460,204.347,53.138,241.856,35.165,42.979,119.170,146.129,-44.151,10.940,75.800,69.548,35.165
'[15:07:43.453 06/11/2076]',42.979,49.621,39.072,13.284,-23.443,67.985,39.072,63.297,-131.282,135.580,159.414,211.770,37.118,192.234,90.256,54.310,115.263,144.176,-38.291,14.847,75.800,-7.424,90.256
'[15:07:43.457 06/11/2076]',33.993,43.370,33.211,26.960,-28.913,57.045,33.211,78.926,-116.044,131.673,137.534,196.142,53.138,37.509,218.413,38.681,106.276,133.236,-32.430,-0.781,26.960,-69.158,218.413
'[15:07:43.461 06/11/2076]',40.244,46.886,35.165,13.284,-23.834,60.562,32.821,67.985,-114.090,148.864,142.613,176.606,39.853,13.675,264.127,35.556,110.183,133.236,-34.383,-4.298,17.192,-119.560,264.127
'[15:07:43.465 06/11/2076]',40.244,35.165,28.523,28.523,-20.708,50.012,32.430,72.283,-93.382,155.897,120.342,175.824,50.794,15.238,241.074,49.231,108.620,127.375,-27.741,1.563,-57.436,-32.039,241.074
'[15:07:43.469 06/11/2076]',46.105,31.258,27.741,17.192,-12.894,41.026,33.602,61.343,-80.488,155.116,110.574,160.586,53.138,24.615,209.817,57.436,105.495,117.607,-26.960,3.907,-73.065,-19.145,209.817
'[15:07:43.473 06/11/2076]',42.198,26.178,20.708,17.192,-15.629,27.350,22.662,73.065,-87.521,139.487,102.369,157.460,2.735,125.031,114.090,68.767,97.289,103.541,-19.927,-4.689,-47.668,13.284,114.090
'[15:07:43.477 06/11/2076]',40.635,23.834,19.536,23.053,-12.894,14.066,24.225,84.005,-101.587,145.739,103.150,157.070,-17.582,128.938,119.560,72.283,98.852,100.024,-18.755,-18.364,-69.548,23.834,119.560
'[15:07:43.480 06/11/2076]',38.291,17.192,17.973,39.853,-15.629,7.424,34.383,89.866,-121.514,150.037,127.375,162.149,-36.337,47.277,217.631,89.866,104.713,107.839,-17.192,-15.238,-61.734,-90.647,217.631
'[15:07:43.484 06/11/2076]',53.138,23.443,27.350,33.211,-0.781,23.443,45.324,71.502,-116.825,160.586,156.679,152.772,-10.159,33.211,226.618,103.150,120.342,123.077,-26.569,-14.457,-88.694,-78.535,226.618
'[15:07:43.488 06/11/2076]',63.687,22.662,27.741,46.886,6.252,37.118,44.542,74.237,-148.864,173.480,191.844,180.904,-14.066,25.788,234.432,150.037,134.799,136.752,-26.960,-7.424,-118.779,-85.958,234.432
'[15:07:43.492 06/11/2076]',71.502,26.569,32.821,50.403,16.801,50.794,51.184,62.906,-121.514,176.996,192.625,176.215,-39.853,42.979,246.545,174.652,148.864,147.302,-32.039,-4.298,-157.070,-73.455,246.545
'[15:07:43.496 06/11/2076]',76.190,27.741,31.258,53.138,20.708,55.482,50.794,60.952,-135.189,168.400,200.049,179.341,-57.436,68.767,197.314,203.956,155.507,151.990,-30.476,-2.344,-143.004,-84.005,197.314
'[15:07:43.500 06/11/2076]',71.893,23.834,30.476,62.906,18.364,55.092,49.621,66.813,-136.361,167.619,183.248,184.420,-78.926,114.090,140.659,223.101,157.460,150.427,-29.695,-7.814,-155.116,-27.350,140.659
'[15:07:43.504 06/11/2076]',69.158,20.708,29.695,66.032,18.755,53.919,51.575,61.734,-132.454,148.864,170.354,188.718,-68.767,31.648,155.507,257.485,157.851,146.520,-28.913,-7.814,-142.613,-91.429,155.507
'[15:07:43.508 06/11/2076]',67.985,17.973,24.615,63.687,17.582,52.747,49.621,55.873,-140.269,113.309,171.917,175.824,-58.608,-47.668,162.149,266.471,152.772,138.706,-23.834,-8.205,-112.137,-169.963,162.149
'[15:07:43.512 06/11/2076]',66.813,20.317,27.741,57.045,22.271,58.217,45.714,46.496,-132.454,113.700,153.162,156.288,-81.661,50.794,49.231,272.332,151.209,126.984,-26.960,-18.755,-138.706,-46.886,49.231
'[15:07:43.516 06/11/2076]',68.376,14.847,23.834,62.906,33.602,55.873,37.509,43.761,-120.342,98.071,129.719,170.354,-55.482,-122.295,130.891,325.470,150.037,107.839,-23.053,-16.801,-132.845,-190.672,130.891
'[15:07:43.520 06/11/2076]',76.190,18.755,25.006,46.496,51.575,62.906,36.728,17.582,-105.104,98.462,128.156,150.427,-73.455,-135.580,150.818,331.331,152.772,97.289,-24.225,-12.894,-126.984,-240.293,150.818
'[15:07:43.523 06/11/2076]',75.409,23.053,30.085,43.370,62.515,69.158,23.053,18.755,-98.462,109.402,111.355,119.560,-92.991,-59.389,69.158,325.861,148.474,76.190,-29.304,-29.695,-144.567,-153.162,69.158
'[15:07:43.527 06/11/2076]',81.661,26.569,25.397,41.416,76.581,74.237,6.642,19.536,-97.289,125.421,101.978,96.117,-103.541,-150.037,166.056,315.311,150.037,57.045,-24.615,-42.198,-136.361,-261.392,166.056
'[15:07:43.531 06/11/2076]',94.164,28.132,24.225,29.695,91.038,77.753,5.861,3.126,-96.508,140.269,105.885,77.753,-104.713,-106.667,126.203,314.530,154.725,47.668,-23.443,-35.946,-129.328,-248.889,126.203
'[15:07:43.535 06/11/2076]',99.634,29.304,23.053,25.788,100.415,75.409,0.781,1.563,-93.382,145.348,101.197,64.078,-110.965,-29.695,47.668,310.623,153.162,30.476,-22.271,-43.761,-112.918,-191.062,47.668
'[15:07:43.539 06/11/2076]',97.289,27.741,14.847,30.867,104.713,65.641,-14.847,16.410,-99.243,147.692,85.177,62.125,-114.481,-18.755,36.337,293.822,149.255,4.689,-14.066,-64.469,-65.641,-205.128,36.337
'[15:07:43.543 06/11/2076]',96.899,27.350,13.675,25.788,114.481,60.952,-14.066,5.079,-91.038,166.447,70.720,48.840,-114.090,-50.403,82.442,278.584,148.864,-10.159,-12.894,-69.158,-38.681,-256.313,82.442
'[15:07:43.547 06/11/2076]',100.415,32.039,11.331,12.894,128.547,64.860,-14.847,-19.536,-75.800,162.540,69.548,17.192,-84.786,-37.900,39.072,258.266,143.785,-24.615,-10.549,-63.297,-25.397,-228.181,39.072
'[15:07:43.551 06/11/2076]',102.369,31.648,5.861,7.033,142.222,71.502,-25.006,-38.291,-55.092,176.606,46.105,-7.814,-76.581,-24.615,18.755,243.419,134.408,-44.933,-5.079,-60.952,-44.933,-179.341,18.755
'[15:07:43.555 06/11/2076]',103.541,26.960,2.735,0.391,153.162,71.111,-33.602,-53.529,-37.900,185.201,23.053,-21.880,-72.283,-98.071,78.535,240.684,125.421,-62.125,-1.954,-57.045,-51.575,-230.134,78.535
'[15:07:43.559 06/11/2076]',105.885,25.397,0.000,-12.112,163.321,70.720,-41.416,-72.674,-21.099,174.261,12.112,-43.761,-65.250,-67.985,30.476,224.664,113.700,-76.581,0.781,-51.575,-37.900,-197.705,30.476
'[15:07:43.563 06/11/2076]',98.462,19.927,-3.516,-16.801,165.275,62.906,-51.184,-77.753,-13.675,155.897,0.391,-55.873,-68.376,-28.523,-26.960,210.208,98.462,-92.991,4.298,-54.701,-4.689,-164.103,-26.960
'[15:07:43.566 06/11/2076]',87.912,8.987,-8.596,-15.629,165.275,48.840,-58.999,-81.270,-11.722,131.673,-4.689,-51.575,-61.734,-70.720,-12.894,209.817,83.614,-106.667,9.377,-54.310,31.648,-205.128,-12.894
'[15:07:43.570 06/11/2076]',84.786,4.298,-15.629,-20.317,170.745,41.416,-62.515,-96.117,-0.391,107.057,-7.033,-54.701,-50.403,-62.906,-52.357,211.380,70.720,-115.263,16.410,-47.277,55.482,-191.844,-52.357
'[15:07:43.574 06/11/2076]',71.893,-1.954,-24.225,-14.457,166.447,33.211,-69.158,-98.462,7.424,92.991,-17.192,-79.316,-60.562,-65.641,-48.059,178.950,54.310,-125.812,25.006,-51.966,64.078,-177.387,-48.059
'[15:07:43.578 06/11/2076]',58.608,-3.126,-30.867,-12.503,163.712,24.615,-73.455,-102.369,26.178,69.548,-33.993,-99.634,-62.125,-74.237,-63.687,162.930,38.681,-135.189,31.648,-59.780,66.422,-150.427,-63.687
'[15:07:43.582 06/11/2076]',50.794,-8.205,-33.211,-10.159,160.586,19.536,-69.548,-111.355,38.681,63.297,-49.621,-103.541,-54.701,-194.969,46.105,153.553,26.178,-133.236,33.993,-52.747,72.674,-246.545,46.105
'[15:07:43.586 06/11/2076]',46.886,-8.987,-32.430,-21.880,158.242,20.708,-64.078,-131.282,46.105,48.840,-50.403,-114.872,-41.416,-142.222,-24.225,138.315,12.894,-126.984,33.211,-42.589,83.614,-178.559,-24.225
'[15:07:43.590 06/11/2076]',31.258,-10.159,-34.383,-24.615,145.739,12.503,-67.595,-129.328,43.761,24.615,-61.343,-122.686,-44.933,-121.514,-66.813,118.388,-5.079,-131.282,35.165,-46.886,110.574,-153.553,-66.813
'[15:07:43.594 06/11/2076]',15.629,-17.582,-33.211,-24.615,130.501,-1.172,-66.032,-123.077,31.258,1.172,-65.250,-122.686,-37.118,-128.156,-89.084,99.634,-21.490,-128.938,33.993,-50.012,155.116,-159.805,-89.084
'[15:07:43.598 06/11/2076]',1.954,-27.350,-30.867,-28.523,116.044,-17.192,-54.701,-128.938,29.304,-7.033,-78.926,-129.719,-46.496,-51.575,-180.122,91.429,-33.602,-122.295,31.648,-36.728,177.778,-98.071,-180.122
'[15:07:43.602 06/11/2076]',-23.834,-42.979,-30.476,-13.284,90.647,-41.416,-49.231,-110.965,22.662,-5.470,-107.839,-125.812,-58.608,-139.487,-99.243,81.661,-48.059,-122.686,31.258,-41.416,202.393,-171.917,-99.243
'[15:07:43.605 06/11/2076]',-42.979,-42.979,-19.145,-25.006,73.065,-55.873,-41.807,-105.885,15.238,-10.159,-107.448,-145.739,-64.078,-152.381,-71.893,40.635,-54.310,-123.858,19.927,-53.529,241.074,-191.062,-71.893
'[15:07:43.609 06/11/2076]',-55.873,-48.059,-14.457,-35.946,57.827,-65.250,-37.509,-110.183,8.205,-21.490,-107.448,-152.772,-55.873,-169.963,-72.674,25.006,-67.985,-117.216,15.238,-42.589,261.783,-203.956,-72.674
'[15:07:43.613 06/11/2076]',-71.111,-55.092,-16.801,-37.509,39.853,-75.018,-37.509,-108.230,-7.033,-34.383,-105.495,-152.772,-57.436,-157.460,-103.932,18.755,-89.084,-116.044,17.582,-29.695,264.518,-178.950,-103.932
'[15:07:43.617 06/11/2076]',-84.786,-58.608,-13.284,-31.648,28.132,-85.177,-38.291,-93.382,-16.801,-43.761,-106.276,-148.474,-60.952,-138.706,-119.951,2.344,-105.885,-114.872,14.066,-30.085,260.220,-130.891,-119.951
'[15:07:43.621 06/11/2076]',-96.117,-65.641,-12.894,-35.946,15.238,-94.945,-37.900,-93.773,-32.039,-60.562,-108.230,-136.361,-52.357,-125.421,-164.884,4.298,-121.905,-111.746,13.675,-18.755,278.974,-108.230,-164.884
'[15:07:43.625 06/11/2076]',-111.355,-71.111,-17.973,-28.523,-1.954,-106.276,-38.291,-82.833,-47.668,-71.111,-116.435,-133.236,-73.846,-126.984,-163.712,-4.689,-136.361,-110.965,18.755,-14.066,285.226,-114.090,-163.712
'[15:07:43.629 06/11/2076]',-123.077,-70.720,-17.192,-27.350,-14.066,-110.574,-39.072,-74.628,-59.780,-68.376,-122.295,-140.659,-91.429,-106.667,-164.103,-30.476,-141.832,-111.355,17.973,-21.099,296.947,-97.680,-164.103
'[15:07:43.633 06/11/2076]',-127.375,-69.939,-14.847,-37.509,-19.536,-110.183,-38.291,-81.661,-67.985,-74.237,-122.295,-131.673,-75.800,-173.480,-116.044,-30.476,-142.613,-111.746,15.629,-14.457,309.841,-157.851,-116.044
'[15:07:43.637 06/11/2076]',-130.501,-72.674,-14.457,-37.118,-25.006,-109.792,-39.853,-79.707,-77.363,-82.051,-120.342,-116.435,-74.237,-174.261,-125.421,-21.880,-144.957,-112.918,15.238,-5.079,310.232,-153.944,-125.421
'[15:07:43.641 06/11/2076]',-137.534,-66.032,-10.940,-35.946,-28.132,-107.448,-42.198,-72.283,-77.363,-79.316,-132.063,-130.891,-91.429,-145.739,-139.096,-43.370,-147.302,-120.733,11.722,-16.020,300.073,-113.700,-139.096
'[15:07:43.645 06/11/2076]',-142.613,-59.389,-5.861,-37.118,-31.258,-103.150,-44.933,-65.250,-89.866,-90.647,-131.282,-130.891,-93.773,-117.998,-184.420,-47.668,-145.348,-125.421,6.642,-23.443,317.656,-88.694,-184.420
'[15:07:43.648 06/11/2076]',-140.269,-57.827,0.391,-33.602,-30.085,-97.289,-39.463,-64.860,-96.508,-96.899,-128.547,-115.263,-76.972,-131.282,-202.002,-27.741,-141.050,-121.123,0.391,-10.940,318.437,-91.819,-202.002
'[15:07:43.652 06/11/2076]',-139.096,-53.529,2.344,-24.225,-27.350,-91.038,-33.602,-61.734,-99.243,-96.508,-134.799,-105.104,-61.734,-136.361,-229.744,-8.987,-139.487,-118.388,-1.563,-5.079,316.093,-80.098,-229.744
'[15:07:43.656 06/11/2076]',-143.785,-50.403,5.079,-18.755,-35.556,-88.303,-37.118,-45.324,-111.746,-103.932,-143.394,-94.945,-67.204,-120.342,-255.531,-11.722,-140.269,-121.123,-4.298,-13.675,336.801,-71.893,-255.531
'[15:07:43.660 06/11/2076]',-147.692,-43.761,12.112,-14.066,-43.370,-83.223,-31.258,-34.383,-110.574,-100.024,-147.302,-87.521,-70.720,-178.168,-169.573,-27.350,-135.580,-115.263,-11.331,-21.880,346.569,-137.534,-169.573
'[15:07:43.664 06/11/2076]',-148.083,-37.509,20.317,-7.424,-48.840,-78.926,-13.284,-30.085,-105.495,-96.508,-153.553,-74.237,-73.846,-146.129,-191.844,-17.582,-127.375,-108.230,-19.536,-16.020,343.053,-114.481,-191.844
'[15:07:43.668 06/11/2076]',-151.209,-30.476,29.304,-3.907,-55.092,-73.846,-7.033,-18.755,-104.713,-95.336,-148.083,-74.628,-84.396,-96.117,-210.598,-32.039,-118.388,-105.885,-28.523,-24.225,341.099,-75.800,-210.598
'[15:07:43.672 06/11/2076]',-143.785,-20.317,42.589,-8.987,-50.794,-60.562,-0.781,-16.801,-105.104,-91.038,-132.845,-69.158,-92.210,-91.429,-186.374,-28.523,-105.104,-101.587,-41.807,-25.006,342.662,-100.024,-186.374
'[15:07:43.676 06/11/2076]',-130.891,-16.801,50.794,-7.033,-39.853,-44.151,1.563,-20.317,-93.773,-84.786,-131.673,-66.032,-60.562,-128.547,-174.652,-12.894,-100.024,-91.429,-50.012,-10.159,284.444,-79.316,-174.652
'[15:07:43.680 06/11/2076]',-132.454,-22.662,51.575,7.033,-44.151,-37.900,0.391,-12.503,-98.071,-75.018,-122.295,-71.111,-67.595,-144.176,-146.129,-10.159,-92.210,-85.568,-50.794,-4.689,259.829,-87.131,-146.129
'[15:07:43.684 06/11/2076]',-121.905,-25.788,59.780,1.563,-38.681,-26.960,3.907,-23.443,-86.349,-62.515,-119.560,-78.144,-42.589,-186.764,-109.402,-8.596,-80.098,-77.363,-58.999,3.126,237.558,-101.587,-109.402
'[15:07:43.688 06/11/2076]',-114.872,-30.476,62.906,5.079,-39.072,-21.490,10.549,-25.397,-86.349,-64.469,-106.667,-67.595,-30.867,-147.302,-156.679,8.596,-69.548,-67.595,-62.125,15.629,244.200,-75.018,-156.679
'[15:07:43.691 06/11/2076]',-112.137,-30.476,63.687,15.238,-42.198,-19.145,16.410,-17.582,-83.223,-42.589,-100.024,-79.316,-37.900,-147.692,-114.872,-5.470,-55.873,-58.217,-62.906,17.973,243.028,-100.024,-114.872
'[15:07:43.695 06/11/2076]',-89.866,-18.755,65.641,8.596,-24.615,-14.066,23.443,-17.582,-84.396,-45.324,-77.363,-82.833,-18.364,-138.315,-123.858,-9.377,-45.714,-46.105,-64.860,16.020,260.611,-116.435,-123.858
'[15:07:43.699 06/11/2076]',-76.581,-7.814,65.250,11.331,-13.284,-9.768,28.523,-12.112,-70.330,-43.761,-73.065,-58.608,-4.298,-154.335,-102.759,13.284,-37.900,-35.556,-64.469,16.801,255.531,-143.785,-102.759
'[15:07:43.703 06/11/2076]',-62.906,5.470,67.595,8.205,0.391,-2.344,35.946,-14.847,-62.906,-38.681,-56.264,-46.496,17.192,-128.547,-120.342,26.178,-27.741,-23.834,-66.813,16.410,230.916,-106.276,-120.342
'[15:07:43.707 06/11/2076]',-57.827,15.629,60.952,11.722,5.079,1.172,34.383,-9.768,-58.217,-39.072,-49.231,-53.138,32.821,-164.493,-87.131,16.801,-20.317,-24.615,-60.171,0.781,210.989,-115.653,-87.131
'[15:07:43.711 06/11/2076]',-48.840,27.350,60.171,5.470,14.457,14.457,30.085,-13.675,-46.496,-35.946,-33.602,-59.389,14.066,-142.222,-46.105,-1.954,-5.470,-19.145,-59.389,-11.331,182.466,-106.667,-46.105
'[15:07:43.715 06/11/2076]',-33.211,30.867,52.747,7.033,27.350,21.880,32.821,-23.834,-33.993,-17.973,-35.556,-51.966,20.317,-96.117,-75.800,10.549,6.642,-12.503,-51.966,-7.033,144.957,-52.357,-75.800
'[15:07:43.719 06/11/2076]',-22.662,32.039,39.853,10.159,31.648,24.615,33.211,-29.695,-25.397,-14.066,-30.085,-48.059,26.960,-133.236,-27.741,13.284,16.020,-8.596,-39.072,-11.331,131.282,-92.601,-27.741
'[15:07:43.723 06/11/2076]',-13.675,38.291,31.258,0.781,32.821,26.178,25.397,-26.960,-16.020,-10.549,-34.383,-46.496,16.801,-138.315,2.735,7.424,22.271,-6.642,-30.476,-28.132,130.110,-124.249,2.735
'[15:07:43.727 06/11/2076]',-12.503,42.979,19.536,-1.954,25.397,16.801,26.960,-21.880,-12.894,-14.457,-38.291,-35.556,15.629,-87.521,-37.900,5.861,24.225,-3.516,-18.755,-44.151,136.361,-94.164,-37.900
'[15:07:43.730 06/11/2076]',-9.768,42.198,12.503,-6.252,17.973,12.503,38.681,-30.867,-5.079,-21.880,-21.099,-35.556,32.039,-84.005,-42.589,8.987,29.695,5.861,-11.722,-40.244,128.156,-93.773,-42.589
'[15:07:43.734 06/11/2076]',-1.172,42.589,0.781,-12.112,18.755,14.457,35.946,-38.291,5.079,-21.490,-11.722,-37.509,31.648,-101.197,-10.159,12.112,33.211,16.020,0.000,-35.165,100.024,-121.123,-10.159
'[15:07:43.738 06/11/2076]',6.252,41.807,-12.503,-11.722,19.927,14.847,28.132,-39.463,18.364,-30.867,0.391,-20.317,33.602,-40.244,-50.012,23.834,29.695,23.443,13.284,-25.006,65.641,-69.939,-50.012
'[15:07:43.742 06/11/2076]',10.549,38.681,-27.350,-9.768,15.629,14.457,25.397,-44.151,32.821,-32.821,7.814,-15.629,29.695,-41.807,-25.788,29.695,27.741,33.211,28.132,-15.629,5.861,-57.827,-25.788
'[15:07:43.746 06/11/2076]',11.722,33.993,-44.151,-8.205,7.033,8.987,17.582,-40.244,31.258,-38.681,19.927,-14.457,9.768,-58.217,19.145,26.178,22.271,39.853,44.933,-8.987,-23.834,-96.899,19.145
'[15:07:43.750 06/11/2076]',8.205,31.648,-54.701,-8.987,-5.079,1.954,15.238,-36.337,33.993,-47.668,28.132,-0.781,-1.954,19.145,-37.118,32.821,17.582,43.761,55.482,-8.987,-43.761,-32.430,-37.118
'[15:07:43.754 06/11/2076]',3.907,22.271,-66.032,-5.470,-20.708,-8.205,17.192,-32.039,28.132,-58.608,40.244,14.457,-5.861,32.039,-50.012,48.449,12.503,48.059,66.813,-3.126,-56.654,-28.132,-50.012
'[15:07:43.758 06/11/2076]',-1.563,16.410,-75.018,-6.642,-36.337,-14.847,16.020,-30.476,17.582,-60.952,52.357,-2.735,-17.582,-3.126,-8.596,35.165,6.252,49.231,75.800,-2.344,-59.389,-79.316,-8.596
'[15:07:43.762 06/11/2076]',-5.861,14.066,-84.786,-12.894,-45.324,-19.536,8.987,-32.039,15.238,-60.952,54.701,-19.927,-32.821,21.880,-26.178,26.178,1.172,47.277,85.568,-2.344,-69.548,-68.376,-26.178
'[15:07:43.766 06/11/2076]',-6.642,3.126,-97.289,-12.894,-49.621,-30.476,3.516,-36.728,21.880,-55.873,46.105,-12.503,-35.946,13.675,-25.397,46.105,-0.391,44.151,98.071,7.814,-98.852,-65.250,-25.397
'[15:07:43.770 06/11/2076]',-12.503,-7.033,-106.276,-12.112,-55.092,-38.681,-1.172,-43.370,21.880,-44.542,50.794,-24.615,-35.165,-93.773,99.243,32.430,-1.172,40.635,107.057,18.755,-130.110,-150.818,99.243
'[15:07:43.773 06/11/2076]',-17.192,-12.503,-117.607,-15.238,-59.780,-46.105,-14.847,-42.198,20.317,-48.840,50.403,-44.933,-67.595,-48.840,77.363,15.238,-5.861,27.350,118.388,17.973,-136.361,-132.454,77.363
'[15:07:43.777 06/11/2076]',-19.145,-19.536,-125.421,-14.457,-63.687,-51.575,-26.960,-35.556,19.145,-53.138,48.059,-49.621,-81.270,-26.178,64.860,7.033,-8.205,17.973,126.203,16.410,-144.957,-113.700,64.860
'[15:07:43.781 06/11/2076]',-23.053,-29.695,-130.891,-10.159,-73.846,-56.264,-26.178,-35.946,12.894,-56.264,52.357,-47.668,-70.720,-39.853,62.125,9.768,-9.377,14.457,131.673,27.741,-139.878,-131.282,62.125
'[15:07:43.785 06/11/2076]',-24.225,-32.430,-133.236,-10.159,-82.833,-57.827,-25.397,-32.821,8.987,-46.496,42.589,-54.310,-79.707,2.735,21.880,5.079,-11.722,8.596,134.017,29.304,-135.971,-100.415,21.880
'[15:07:43.789 06/11/2076]',-27.741,-33.993,-134.799,-8.987,-95.726,-64.078,-30.085,-14.847,0.000,-33.993,25.788,-53.138,-101.587,32.039,25.397,-17.973,-14.066,1.954,135.580,12.503,-131.673,-73.846,25.397
'[15:07:43.793 06/11/2076]',-34.774,-38.291,-134.017,-12.894,-109.011,-71.111,-26.178,-14.847,-0.391,-35.946,25.006,-44.151,-87.521,25.006,20.708,-16.020,-19.145,2.735,134.799,19.145,-108.620,-89.475,20.708
'[15:07:43.797 06/11/2076]',-42.589,-43.761,-130.891,-16.020,-121.905,-72.674,-19.536,-19.145,-1.172,-18.364,20.317,-64.078,-97.289,29.695,30.476,-27.741,-25.006,2.344,131.673,33.993,-109.011,-96.508,30.476
'[15:07:43.801 06/11/2076]',-41.416,-49.621,-125.031,-25.397,-123.468,-68.767,-25.006,-25.006,-1.563,-29.695,21.880,-62.906,-93.382,46.105,-5.861,-20.708,-34.774,-1.172,125.812,45.714,-100.024,-84.786,-5.861
'[15:07:43.805 06/11/2076]',-46.886,-59.389,-118.779,-31.258,-131.282,-67.595,-30.867,-26.960,2.344,-41.807,14.457,-55.092,-71.111,32.430,-42.979,0.781,-41.026,-5.861,119.560,58.608,-82.833,-91.429,-42.979
'[15:07:43.809 06/11/2076]',-53.919,-61.734,-107.057,-41.026,-137.924,-61.343,-28.913,-35.556,0.781,-30.867,1.172,-71.111,-83.223,48.059,-48.059,-16.410,-43.370,-9.377,107.839,63.687,-76.190,-85.177,-48.059
'[15:07:43.813 06/11/2076]',-59.780,-66.813,-98.462,-40.635,-146.129,-58.608,-32.430,-27.741,-7.424,-43.761,-7.814,-70.330,-68.767,4.689,-45.324,-21.880,-49.621,-12.112,99.243,55.873,-52.357,-105.885,-45.324
'[15:07:43.816 06/11/2076]',-64.860,-73.065,-89.866,-44.151,-152.772,-58.608,-32.430,-28.132,-14.847,-42.979,-10.940,-60.171,-67.204,-4.298,-36.337,-22.271,-52.357,-10.940,90.647,56.654,-41.416,-110.183,-36.337
'[15:07:43.820 06/11/2076]',-68.767,-75.409,-85.177,-44.933,-152.772,-60.952,-31.258,-29.304,-18.755,-49.231,-14.066,-49.231,-57.436,-9.768,-55.873,-9.768,-58.608,-11.331,85.958,63.687,-22.271,-114.481,-55.873
'[15:07:43.824 06/11/2076]',-75.018,-73.065,-77.363,-40.635,-152.772,-63.687,-35.556,-13.675,-27.350,-56.264,-15.629,-56.264,-66.813,-27.741,-35.946,-26.178,-69.158,-18.755,78.144,57.827,-22.271,-123.858,-35.946
'[15:07:43.828 06/11/2076]',-76.190,-75.018,-76.581,-41.416,-147.302,-72.283,-44.151,-5.079,-28.523,-66.032,-22.662,-57.827,-71.502,-24.615,-46.496,-33.993,-79.707,-28.132,77.363,51.966,-16.410,-117.607,-46.496
'[15:07:43.832 06/11/2076]',-71.111,-77.363,-75.800,-45.714,-136.361,-77.753,-47.668,-7.814,-27.350,-71.893,-32.039,-46.496,-60.562,-39.072,-64.469,-14.457,-86.349,-32.039,76.581,61.343,-21.880,-115.653,-64.469
'[15:07:43.836 06/11/2076]',-67.204,-84.786,-75.018,-49.231,-130.110,-80.879,-52.747,-12.503,-29.304,-75.018,-36.337,-47.668,-53.529,-76.581,-44.933,-14.066,-92.210,-35.556,75.800,67.204,-28.523,-134.799,-44.933
'[15:07:43.840 06/11/2076]',-69.548,-84.005,-80.098,-51.966,-129.328,-82.833,-65.250,-7.424,-32.821,-80.879,-44.542,-54.310,-56.264,-75.409,-62.515,-19.927,-100.024,-47.277,80.879,54.310,-12.503,-130.110,-62.515
'[15:07:43.844 06/11/2076]',-69.158,-83.614,-87.131,-53.529,-128.938,-84.786,-74.237,-6.252,-39.072,-83.223,-51.966,-56.654,-57.827,-78.535,-73.065,-22.271,-100.024,-57.436,87.912,49.621,-5.861,-127.375,-73.065
'[15:07:43.848 06/11/2076]',-71.893,-87.131,-87.521,-52.357,-133.236,-84.786,-68.767,-12.112,-44.151,-80.879,-55.092,-59.780,-48.840,-97.289,-70.720,-23.834,-97.289,-62.515,88.303,53.529,6.252,-135.189,-70.720
'[15:07:43.852 06/11/2076]',-75.409,-85.568,-88.694,-46.496,-137.534,-85.177,-66.422,-7.814,-47.668,-79.707,-64.860,-51.966,-38.681,-98.071,-82.833,-25.788,-96.117,-72.283,89.475,44.933,26.178,-123.468,-82.833
'[15:07:43.855 06/11/2076]',-75.018,-82.051,-86.349,-52.747,-140.659,-82.442,-68.376,-3.907,-49.621,-81.270,-70.720,-54.701,-37.509,-92.601,-84.786,-42.198,-91.038,-81.661,87.131,34.383,44.542,-117.216,-84.786
'[15:07:43.859 06/11/2076]',-68.376,-75.800,-78.144,-66.813,-135.189,-67.595,-68.376,-18.364,-48.449,-78.535,-67.595,-61.343,-25.788,-105.495,-73.455,-51.575,-84.786,-77.363,78.926,39.463,47.668,-120.733,-73.455
'[15:07:43.863 06/11/2076]',-61.343,-75.800,-79.316,-64.078,-130.110,-57.827,-71.893,-20.708,-41.416,-78.144,-66.032,-62.906,-10.940,-109.402,-76.581,-52.747,-83.223,-79.316,80.098,47.668,46.886,-118.388,-76.581
'[15:07:43.867 06/11/2076]',-53.138,-74.237,-76.972,-66.032,-121.905,-50.403,-75.800,-23.053,-38.291,-76.581,-66.032,-60.562,1.172,-101.197,-90.647,-52.747,-78.144,-82.051,77.753,49.621,59.780,-110.183,-90.647
'[15:07:43.871 06/11/2076]',-45.324,-73.846,-75.018,-60.562,-111.746,-42.198,-75.409,-25.397,-39.072,-63.687,-66.032,-53.919,13.675,-131.673,-53.138,-53.919,-67.595,-80.488,75.800,55.092,64.469,-131.673,-53.138
'[15:07:43.875 06/11/2076]',-39.072,-77.363,-75.800,-52.747,-105.104,-43.370,-73.065,-23.834,-42.979,-61.343,-67.985,-55.482,23.443,-112.918,-75.800,-64.078,-62.125,-79.316,76.581,57.436,85.177,-117.216,-75.800
'[15:07:43.879 06/11/2076]',-38.291,-78.144,-74.237,-46.105,-103.150,-46.496,-69.548,-17.192,-55.092,-57.045,-68.767,-58.999,22.662,-93.382,-88.303,-82.051,-55.092,-79.707,75.018,54.310,107.057,-104.713,-88.303
'[15:07:43.883 06/11/2076]',-34.383,-74.237,-68.767,-45.714,-97.680,-46.105,-62.906,-17.582,-62.906,-48.449,-65.641,-44.933,33.602,-86.349,-91.429,-79.707,-43.761,-74.237,69.548,57.436,121.123,-101.978,-91.429
'[15:07:43.887 06/11/2076]',-29.304,-75.800,-66.032,-44.933,-92.601,-48.840,-56.264,-19.145,-69.939,-46.105,-60.171,-30.085,49.621,-73.455,-111.746,-72.674,-37.509,-70.330,66.813,67.985,128.938,-89.866,-111.746
'[15:07:43.891 06/11/2076]',-33.602,-71.111,-64.078,-39.463,-99.634,-50.794,-53.138,-5.470,-86.349,-45.324,-51.184,-34.774,43.370,-46.496,-121.905,-95.336,-34.774,-71.893,64.860,62.515,152.381,-88.694,-121.905
'[15:07:43.895 06/11/2076]',-32.039,-62.515,-59.389,-37.118,-101.197,-45.714,-50.403,4.689,-96.117,-41.807,-39.463,-35.556,40.635,-29.304,-115.653,-111.355,-30.476,-63.687,60.171,56.654,168.791,-92.210,-115.653
'[15:07:43.898 06/11/2076]',-20.708,-64.860,-58.608,-36.728,-95.726,-43.370,-42.589,-0.391,-94.554,-39.853,-27.741,-23.443,61.734,-30.867,-119.170,-100.024,-25.788,-50.403,59.389,75.018,159.023,-91.819,-119.170
'[15:07:43.902 06/11/2076]',-13.675,-70.720,-57.827,-31.648,-95.336,-42.979,-36.337,0.781,-98.852,-41.026,-16.410,-14.847,77.753,-23.053,-134.799,-93.382,-25.788,-38.681,58.608,90.256,168.010,-92.991,-134.799
'[15:07:43.906 06/11/2076]',-17.192,-69.158,-53.919,-25.397,-98.462,-44.151,-37.118,13.675,-98.852,-34.774,-17.973,-13.284,73.065,12.112,-149.255,-103.932,-24.615,-36.728,54.701,81.270,172.698,-58.999,-149.255
'[15:07:43.910 06/11/2076]',-19.536,-75.018,-54.310,-21.880,-101.587,-52.357,-35.165,18.364,-101.978,-37.509,-21.880,-3.126,78.144,26.178,-174.652,-97.680,-26.569,-36.337,55.092,83.223,189.499,-52.357,-174.652
'[15:07:43.914 06/11/2076]',-30.085,-80.488,-47.277,-2.344,-107.839,-60.171,-21.880,29.304,-107.057,-30.867,-25.788,8.596,85.177,21.880,-166.447,-98.462,-23.834,-33.993,48.059,86.740,205.128,-52.747,-166.447
'[15:07:43.918 06/11/2076]',-36.728,-73.846,-44.933,2.344,-110.183,-60.562,-18.755,35.556,-108.620,-27.741,-27.350,0.391,79.707,67.595,-203.565,-110.183,-20.708,-38.681,45.714,78.535,215.287,-14.066,-203.565
'[15:07:43.922 06/11/2076]',-35.165,-75.018,-41.807,1.563,-108.230,-56.654,-20.708,33.993,-109.402,-24.615,-23.443,-2.735,80.879,29.695,-158.242,-115.653,-17.192,-40.244,42.589,77.363,224.274,-58.999,-158.242
'[15:07:43.926 06/11/2076]',-25.397,-70.720,-39.463,-4.689,-95.336,-43.761,-21.490,19.145,-105.104,-17.582,-14.457,-10.940,90.256,24.225,-148.474,-117.998,-12.112,-32.039,40.244,89.475,212.552,-64.860,-148.474
'[15:07:43.930 06/11/2076]',-18.364,-68.767,-39.463,-6.642,-87.912,-37.900,-21.490,13.284,-104.713,-10.940,-8.205,-23.053,89.866,43.370,-162.149,-121.123,-6.642,-27.350,40.244,91.038,205.128,-50.012,-162.149
'[15:07:43.934 06/11/2076]',-9.377,-73.846,-35.165,-7.814,-78.535,-34.383,-22.271,8.596,-100.806,-3.516,-6.642,-21.099,95.336,46.496,-162.540,-113.700,-2.344,-22.662,35.946,91.429,207.863,-47.668,-162.540
'[15:07:43.938 06/11/2076]',-8.987,-71.111,-30.085,-5.861,-71.111,-32.430,-17.973,4.298,-96.899,4.689,-7.033,-11.722,103.932,48.840,-163.321,-103.150,3.516,-16.801,30.867,93.773,209.426,-42.589,-163.321
'[15:07:43.941 06/11/2076]',-14.847,-67.985,-25.397,0.000,-69.939,-32.821,-12.503,6.642,-98.852,14.457,-6.642,-22.271,94.945,70.720,-166.447,-114.872,10.159,-13.675,26.178,87.131,211.770,-26.178,-166.447
'[15:07:43.945 06/11/2076]',-15.629,-64.078,-22.271,1.172,-63.687,-33.211,-10.549,6.642,-90.647,22.271,-6.252,-34.383,92.991,92.991,-170.745,-126.984,16.801,-11.722,23.053,80.098,217.631,-13.675,-170.745
'[15:07:43.949 06/11/2076]',-8.205,-66.422,-20.317,3.516,-50.794,-30.867,-9.768,0.391,-87.131,31.258,-7.424,-18.364,98.852,89.866,-164.884,-108.620,24.615,-7.424,21.099,86.740,213.333,-17.192,-164.884
'[15:07:43.953 06/11/2076]',-6.252,-68.376,-16.801,7.033,-43.370,-29.304,-5.470,-4.689,-86.349,40.244,-2.735,-8.987,102.369,96.508,-160.195,-98.071,34.383,-1.954,17.582,90.647,203.956,-8.205,-160.195
'[15:07:43.957 06/11/2076]',0.000,-60.562,-15.238,6.252,-32.821,-25.788,-6.252,-3.907,-82.051,44.933,4.689,-18.755,91.819,139.878,-175.433,-108.620,37.118,-0.391,16.020,78.926,196.923,23.053,-175.433
'[15:07:43.961 06/11/2076]',7.814,-53.919,-12.894,5.861,-19.927,-21.880,-8.205,-1.954,-81.270,50.794,10.159,-13.675,85.958,122.686,-137.924,-106.276,41.807,4.689,13.675,69.158,189.890,-1.563,-137.924
'[15:07:43.965 06/11/2076]',13.675,-50.403,-12.894,7.814,-13.675,-19.536,0.781,-8.596,-76.972,63.297,26.178,-4.689,95.726,113.309,-101.587,-100.806,48.059,20.708,13.675,74.237,168.400,-9.377,-101.587
'[15:07:43.969 06/11/2076]',16.410,-46.886,-12.894,12.503,-13.675,-19.927,11.331,-7.424,-76.581,67.985,40.635,2.735,99.634,126.593,-98.071,-93.773,48.059,37.118,13.675,71.111,161.758,-3.126,-98.071
'[15:07:43.973 06/11/2076]',16.410,-42.198,-10.549,16.020,-18.755,-19.536,14.457,5.079,-85.568,72.283,50.012,15.238,87.912,139.487,-78.144,-98.071,49.621,48.449,11.331,53.919,168.400,-5.470,-78.144
'[15:07:43.977 06/11/2076]',7.424,-41.026,-6.642,26.569,-34.774,-25.397,24.225,22.271,-100.415,76.581,61.734,33.602,68.767,162.930,-59.780,-101.587,48.840,64.078,7.424,37.900,171.917,4.298,-59.780
'[15:07:43.980 06/11/2076]',11.331,-34.383,-1.954,31.258,-34.774,-22.271,39.853,23.053,-101.978,84.396,80.879,44.151,67.595,184.029,-56.264,-87.521,56.654,80.879,2.735,41.416,146.911,25.006,-56.264
'[15:07:43.984 06/11/2076]',19.927,-21.099,3.907,31.648,-22.271,-11.331,48.059,22.271,-93.382,97.289,101.197,48.449,64.860,198.486,-29.695,-80.879,64.860,92.601,-3.126,37.118,121.123,35.946,-29.695
'[15:07:43.988 06/11/2076]',32.039,-12.894,6.252,35.165,-8.987,-0.781,45.714,24.225,-84.396,105.495,122.686,69.939,67.204,187.937,14.066,-56.654,69.548,105.104,-5.470,41.416,82.442,28.523,14.066
'[15:07:43.992 06/11/2076]',43.370,-9.768,8.987,39.853,1.563,5.079,49.621,25.397,-77.753,114.872,146.129,77.753,71.893,190.281,44.151,-46.496,74.628,121.514,-8.205,45.324,58.999,28.913,44.151
'[15:07:43.996 06/11/2076]',45.714,-7.033,11.331,48.059,3.907,9.377,50.403,33.993,-76.190,121.514,165.275,82.442,66.422,216.850,53.529,-45.324,77.753,132.063,-10.549,40.635,47.668,49.621,53.529
'[15:07:44.000 06/11/2076]',46.886,-8.596,17.582,56.654,-0.391,12.112,50.403,50.012,-82.833,128.156,178.950,107.057,58.608,227.399,74.628,-31.648,80.879,139.096,-16.801,35.165,39.072,60.171,74.628
'[15:07:44.004 06/11/2076]',59.780,-7.033,17.582,65.641,10.159,13.284,53.529,57.827,-84.005,138.315,190.281,128.156,62.515,235.604,90.256,-17.192,87.521,145.739,-16.801,33.993,31.648,68.767,90.256
'[15:07:44.008 06/11/2076]',66.813,-2.344,18.755,67.595,12.894,17.973,56.654,62.515,-82.442,145.739,203.175,125.421,58.217,284.054,73.846,-25.006,91.819,150.427,-17.973,28.913,24.225,108.230,73.846
'[15:07:44.012 06/11/2076]',73.846,0.000,17.582,77.753,14.457,21.099,55.092,77.753,-89.866,155.116,211.770,134.799,45.324,251.233,139.878,-25.006,96.899,155.507,-16.801,20.317,15.629,68.767,139.878
'[15:07:44.016 06/11/2076]',87.521,5.470,22.662,77.363,24.615,29.304,64.469,74.237,-85.958,168.400,226.227,158.242,56.264,239.902,177.387,-7.424,105.495,175.043,-21.880,20.708,9.377,55.482,177.387
'[15:07:44.020 06/11/2076]',94.164,13.675,29.695,80.098,25.397,41.026,75.800,74.628,-79.316,178.168,243.810,173.089,68.767,243.419,194.969,7.424,114.090,194.579,-28.913,24.615,3.126,54.310,194.969
'[15:07:44.023 06/11/2076]',93.773,23.053,37.900,84.396,22.271,51.575,77.753,87.131,-78.535,185.983,256.313,172.698,58.608,273.895,202.393,0.391,120.342,200.830,-37.118,9.768,1.563,80.879,202.393
'[15:07:44.027 06/11/2076]',98.071,36.728,44.151,89.475,28.913,60.562,78.926,100.024,-81.661,192.234,266.471,183.639,51.575,295.385,211.380,1.563,125.812,206.691,-43.370,0.391,3.907,94.554,211.380
'[15:07:44.031 06/11/2076]',105.885,41.026,48.059,100.415,37.118,64.469,87.521,106.276,-74.237,198.486,274.286,198.486,65.250,308.669,209.035,13.675,133.236,213.333,-47.277,7.033,1.172,109.402,209.035
'[15:07:44.035 06/11/2076]',105.104,44.933,53.138,108.620,35.946,66.032,93.773,116.044,-76.190,204.737,277.802,207.473,65.641,338.755,195.751,12.503,137.924,212.552,-52.357,1.563,7.033,137.534,195.751
'[15:07:44.039 06/11/2076]',99.243,48.449,60.171,122.686,33.993,60.952,90.256,144.957,-87.912,208.645,273.504,228.571,43.761,311.795,262.955,2.735,139.096,211.770,-59.389,-22.662,28.523,101.197,262.955
'[15:07:44.043 06/11/2076]',105.885,58.608,70.720,117.216,42.198,71.111,98.462,140.269,-73.065,214.896,276.630,237.167,57.045,315.311,281.319,0.781,144.567,223.492,-69.939,-22.271,29.695,101.978,281.319
'[15:07:44.047 06/11/2076]',99.243,67.595,78.535,114.872,36.337,81.661,109.011,132.845,-64.469,217.241,286.007,230.525,64.469,327.424,276.239,-0.781,146.911,233.651,-77.753,-16.410,29.695,112.137,276.239
'[15:07:44.051 06/11/2076]',105.495,73.455,82.442,112.527,44.542,92.601,107.057,129.328,-57.827,209.426,292.259,236.386,67.985,317.265,282.100,10.940,141.050,239.902,-81.661,-10.549,24.225,107.448,282.100
'[15:07:44.055 06/11/2076]',112.137,75.409,86.349,110.965,50.012,99.634,108.620,126.593,-48.840,204.737,296.166,246.154,76.581,308.669,286.007,25.397,137.924,247.717,-85.568,0.781,13.675,106.276,286.007
'[15:07:44.059 06/11/2076]',112.527,80.098,90.647,110.183,47.668,105.885,114.090,125.421,-46.496,202.393,302.027,242.637,76.190,310.232,289.133,23.443,137.924,253.578,-89.866,7.033,5.861,108.620,289.133
'[15:07:44.063 06/11/2076]',115.653,84.005,100.024,115.653,48.449,110.965,118.779,137.534,-48.059,199.267,306.716,245.763,68.767,318.437,294.994,20.317,138.706,259.438,-99.243,0.391,5.861,114.872,294.994
'[15:07:44.066 06/11/2076]',122.295,89.084,112.137,117.216,55.092,116.435,125.031,144.957,-39.463,198.486,309.841,261.001,75.409,316.484,305.153,32.039,146.520,264.127,-111.355,-3.907,5.470,115.263,305.153
'[15:07:44.070 06/11/2076]',124.640,93.773,120.733,114.481,57.827,121.123,132.063,141.832,-34.383,199.658,311.795,266.471,82.442,312.186,305.543,41.026,154.335,264.127,-119.951,0.391,1.172,114.872,305.543
'[15:07:44.074 06/11/2076]',122.295,97.680,128.156,111.355,60.171,121.123,132.454,144.957,-29.695,193.797,306.716,247.717,77.753,327.033,282.882,28.132,155.116,252.796,-127.375,-5.079,8.596,126.593,282.882
'[15:07:44.078 06/11/2076]',119.560,94.945,128.547,109.402,62.125,116.435,124.640,148.864,-26.178,184.029,294.994,235.214,69.939,299.292,292.259,25.006,154.725,237.558,-127.766,-11.722,16.410,99.634,292.259
'[15:07:44.082 06/11/2076]',125.421,86.740,125.812,102.369,69.939,114.481,120.342,135.189,-19.145,182.466,284.054,229.353,74.628,262.173,306.325,31.258,159.414,226.227,-125.031,3.516,-3.126,82.442,306.325
'[15:07:44.086 06/11/2076]',123.858,83.614,123.858,98.852,71.111,117.607,114.872,126.203,-7.424,176.215,276.239,218.803,82.833,246.154,293.040,40.244,161.368,214.115,-123.077,15.629,-17.192,78.926,293.040
'[15:07:44.090 06/11/2076]',123.468,82.833,124.640,100.806,75.409,121.514,101.197,133.626,0.000,168.400,266.862,212.161,69.939,230.916,311.795,33.993,160.586,199.267,-123.858,4.689,-20.708,70.330,311.795
'[15:07:44.094 06/11/2076]',123.077,83.223,119.951,101.978,80.488,121.905,91.038,134.799,5.079,166.056,257.094,210.598,62.515,227.790,320.000,27.350,164.884,187.546,-119.170,1.563,-24.225,71.893,320.000
'[15:07:44.098 06/11/2076]',116.044,82.051,126.593,102.759,79.707,120.733,94.554,132.454,10.549,169.963,249.280,208.254,64.469,242.247,303.980,26.960,168.010,182.466,-125.812,3.516,-25.788,93.382,303.980
'[15:07:44.102 06/11/2076]',110.574,77.753,130.110,109.402,82.442,111.746,95.336,138.706,15.238,173.089,235.995,216.068,58.999,246.935,305.153,28.523,168.791,171.917,-129.328,-4.689,-19.536,105.495,305.153
'[15:07:44.105 06/11/2076]',109.011,78.144,128.938,101.587,86.349,107.448,85.958,137.534,18.755,175.043,223.883,207.082,39.853,254.750,310.623,19.536,171.136,159.023,-128.156,-14.847,-24.615,108.230,310.623
'[15:07:44.109 06/11/2076]',107.448,76.190,131.673,84.786,87.131,108.230,85.958,118.779,36.337,178.168,221.148,187.546,35.946,281.709,284.444,20.708,174.652,154.725,-130.891,-8.987,-53.919,141.050,284.444
'[15:07:44.113 06/11/2076]',106.667,73.065,126.593,85.958,89.475,109.011,80.098,113.700,44.933,175.824,219.976,181.685,21.490,233.260,327.033,41.416,171.917,147.692,-125.812,3.126,-101.978,105.885,327.033
'[15:07:44.117 06/11/2076]',115.653,73.065,127.375,73.455,101.197,110.183,75.800,101.978,56.654,177.778,221.929,169.963,6.642,227.790,343.443,48.449,173.089,141.832,-126.593,5.861,-139.487,107.839,343.443
'[15:07:44.121 06/11/2076]',116.825,70.720,129.328,67.595,105.885,107.839,76.190,94.164,61.734,176.996,223.101,171.526,5.079,210.989,348.523,67.985,174.652,139.487,-128.547,8.987,-159.414,104.322,348.523
'[15:07:44.125 06/11/2076]',117.998,71.111,131.673,67.595,110.965,105.495,80.098,91.819,59.389,176.996,224.274,162.540,-4.689,177.387,375.092,75.018,176.996,137.143,-130.891,7.814,-177.778,84.786,375.092
'[15:07:44.129 06/11/2076]',117.607,71.111,135.189,62.906,111.355,103.150,82.442,89.866,55.092,173.871,221.929,150.427,-17.973,158.632,379.389,82.051,180.513,134.017,-134.408,0.781,-185.983,73.065,379.389
'[15:07:44.133 06/11/2076]',118.388,70.720,138.315,55.873,109.402,105.495,85.958,81.270,58.217,165.665,220.757,164.103,-15.238,132.063,368.449,123.858,186.374,133.626,-137.534,3.126,-201.221,57.436,368.449
'[15:07:44.137 06/11/2076]',120.733,67.985,139.096,58.217,107.448,108.230,91.429,78.535,57.827,159.414,219.585,183.248,-21.099,98.462,370.012,172.698,189.109,136.752,-138.315,9.377,-245.372,49.621,370.012
'[15:07:44.141 06/11/2076]',120.733,72.283,142.613,60.562,105.495,111.746,90.256,87.912,48.840,152.381,222.320,182.466,-48.449,85.568,380.562,189.109,186.764,135.580,-141.832,0.391,-270.379,31.648,380.562
'[15:07:44.145 06/11/2076]',121.905,75.409,147.302,58.608,107.448,114.481,90.647,91.429,46.496,145.348,225.836,186.374,-65.641,114.090,352.821,203.565,183.639,139.096,-146.520,-9.768,-286.398,53.138,352.821
'[15:07:44.148 06/11/2076]',126.203,69.548,150.818,66.032,112.918,115.653,96.117,87.521,44.542,144.957,231.306,201.221,-64.078,61.734,393.065,232.088,180.122,145.739,-150.037,0.000,-307.106,7.424,393.065
'[15:07:44.152 06/11/2076]',127.766,65.250,155.897,64.078,116.435,118.388,102.369,76.190,45.324,143.785,233.651,198.486,-62.906,63.297,376.654,245.372,174.652,146.520,-155.116,6.642,-311.795,5.079,376.654
'[15:07:44.156 06/11/2076]',117.216,60.171,155.507,62.125,109.402,111.355,97.289,76.972,47.277,132.063,222.320,193.797,-73.846,74.237,346.178,249.280,165.275,130.501,-154.725,-3.126,-294.994,3.126,346.178
'[15:07:44.160 06/11/2076]',106.276,56.264,154.725,57.827,104.713,103.150,95.336,71.111,50.403,119.951,207.082,191.062,-82.833,56.654,330.940,264.127,155.897,113.700,-153.944,-10.159,-280.537,-22.662,330.940
'[15:07:44.164 06/11/2076]',110.574,48.449,149.646,61.734,117.607,89.084,98.071,64.860,63.297,105.495,184.811,191.062,-85.177,44.933,294.994,291.477,143.785,94.554,-148.864,-11.331,-278.584,-32.430,294.994
'[15:07:44.168 06/11/2076]',99.634,48.840,152.381,55.092,124.640,76.972,95.726,58.217,77.363,87.131,162.930,175.043,-96.508,48.059,255.531,296.557,131.282,68.376,-151.600,-31.258,-260.220,-27.741,255.531
'[15:07:44.172 06/11/2076]',98.462,55.092,151.990,42.589,142.613,76.972,84.786,43.370,99.243,68.376,138.706,162.930,-101.197,14.066,247.717,311.404,118.388,41.416,-151.209,-42.198,-262.955,-48.449,247.717
'[15:07:44.176 06/11/2076]',99.634,54.310,146.520,37.900,162.930,73.846,71.502,30.867,124.249,49.621,111.355,151.209,-102.369,-33.602,246.154,328.987,98.462,17.192,-145.739,-42.589,-286.398,-64.860,246.154
'[15:07:44.180 06/11/2076]',92.601,54.701,139.878,26.178,173.089,64.860,57.045,17.973,141.832,28.523,82.051,120.733,-112.527,-41.807,206.691,323.907,77.753,-9.768,-139.096,-50.794,-302.027,-40.635,206.691
'[15:07:44.184 06/11/2076]',91.429,55.873,126.203,17.973,184.811,52.747,39.463,14.847,154.335,7.033,47.668,105.885,-121.123,-114.090,226.618,325.861,55.482,-38.291,-125.421,-56.654,-315.702,-78.926,226.618
'[15:07:44.188 06/11/2076]',95.336,54.310,118.388,11.331,202.002,37.118,30.085,10.940,173.089,-8.987,18.755,90.256,-118.779,-151.990,224.664,320.000,32.039,-56.654,-117.607,-61.734,-316.874,-84.005,224.664
'[15:07:44.191 06/11/2076]',85.958,53.919,110.574,6.252,202.784,17.192,23.834,12.503,182.466,-30.867,-8.987,58.608,-121.905,-160.195,193.797,290.305,8.205,-77.363,-109.792,-70.330,-297.729,-71.893,193.797
'[15:07:44.195 06/11/2076]',72.674,53.138,101.197,1.172,201.221,0.391,14.847,12.894,189.109,-52.357,-37.118,32.039,-126.984,-167.619,165.275,261.783,-10.940,-98.852,-100.415,-78.535,-264.908,-69.158,165.275
'[15:07:44.199 06/11/2076]',64.860,43.761,98.462,-3.126,203.175,-15.629,9.768,7.033,210.208,-75.409,-66.032,31.258,-103.150,-178.168,121.123,260.611,-29.695,-116.825,-97.680,-75.409,-232.088,-55.482,121.123
'[15:07:44.203 06/11/2076]',54.701,30.476,89.866,-6.252,199.267,-35.165,3.126,2.344,223.101,-98.462,-96.117,23.443,-84.786,-187.546,75.800,249.280,-51.575,-135.189,-89.084,-69.548,-199.267,-44.542,75.800
'[15:07:44.207 06/11/2076]',41.026,22.662,75.018,-14.457,187.937,-53.919,-9.377,1.172,223.101,-121.123,-125.812,-5.470,-91.038,-190.672,42.198,209.817,-76.581,-157.070,-74.237,-76.972,-163.712,-41.026,42.198
'[15:07:44.211 06/11/2076]',30.085,16.801,61.343,-27.350,174.652,-65.250,-21.099,-5.079,225.836,-141.050,-150.427,-27.741,-85.958,-186.764,4.298,174.652,-100.024,-169.963,-60.562,-78.144,-141.441,-21.490,4.298
'[15:07:44.215 06/11/2076]',22.662,8.205,42.198,-30.476,160.586,-77.753,-25.397,-12.894,220.366,-158.242,-169.182,-40.244,-69.548,-196.923,-37.118,156.288,-121.123,-174.261,-41.416,-60.171,-123.858,-16.020,-37.118
'[15:07:44.219 06/11/2076]',17.192,-0.391,20.317,-31.648,144.567,-88.694,-31.648,-18.364,212.552,-169.182,-184.420,-55.482,-61.343,-199.658,-66.422,130.891,-137.534,-180.122,-19.536,-53.529,-107.057,-5.470,-66.422
'[15:07:44.223 06/11/2076]',0.391,-6.642,0.391,-35.556,120.342,-98.462,-44.542,-17.582,200.830,-183.248,-198.486,-69.158,-66.032,-182.466,-95.726,94.164,-148.864,-192.234,0.391,-57.827,-73.846,9.768,-95.726
'[15:07:44.227 06/11/2076]',-19.536,-16.801,-9.768,-26.960,94.164,-112.527,-50.403,-5.861,189.499,-195.751,-210.989,-80.488,-67.985,-191.062,-97.680,59.780,-161.368,-201.221,10.549,-67.204,-29.695,-0.781,-97.680
'[15:07:44.230 06/11/2076]',-26.960,-27.741,-23.443,-25.397,78.926,-116.044,-48.840,-18.364,185.983,-196.142,-212.552,-96.508,-58.217,-207.082,-86.349,33.211,-162.930,-201.612,24.225,-60.562,-9.768,-8.596,-86.349
'[15:07:44.234 06/11/2076]',-46.886,-33.211,-30.085,-39.072,54.701,-114.872,-51.184,-38.291,176.996,-201.221,-209.426,-123.077,-54.701,-190.281,-112.918,2.735,-168.400,-204.737,30.867,-53.919,13.675,8.987,-112.918
'[15:07:44.238 06/11/2076]',-60.562,-39.853,-39.853,-44.933,37.509,-111.355,-61.734,-50.012,167.228,-212.161,-205.128,-128.547,-43.761,-198.486,-128.547,-6.642,-175.824,-201.612,40.635,-41.807,23.443,12.503,-128.547
'[15:07:44.242 06/11/2076]',-60.171,-47.668,-53.138,-52.357,31.648,-112.918,-65.250,-67.204,157.070,-216.459,-198.486,-144.567,-33.211,-209.035,-133.236,-25.397,-180.904,-192.625,53.919,-25.788,28.132,10.159,-133.236
'[15:07:44.246 06/11/2076]',-72.674,-51.184,-65.641,-60.562,14.457,-119.560,-69.939,-76.581,144.567,-223.883,-192.234,-163.321,-32.821,-202.784,-145.739,-53.138,-189.890,-184.029,66.422,-20.708,41.807,12.894,-145.739
'[15:07:44.250 06/11/2076]',-85.177,-57.827,-73.455,-67.595,-3.516,-127.766,-71.893,-80.879,125.812,-232.479,-189.109,-163.712,-31.258,-194.579,-166.447,-65.641,-199.267,-177.387,74.237,-19.536,61.343,23.053,-166.447
'[15:07:44.254 06/11/2076]',-85.177,-64.078,-79.707,-67.595,-10.549,-135.580,-68.376,-82.442,117.216,-235.214,-188.327,-161.368,-21.490,-198.095,-173.089,-74.237,-206.691,-166.447,80.488,-16.410,75.409,27.350,-173.089
