'Time and date','FP1-F7','F7-T7','T7-P7','P7-O1','FP1-F3','F3-C3','C3-P3','P3-O1','FP2-F4','F4-C4','C4-P4','P4-O2','FP2-F8','F8-T8','T8-P8','P8-O2','FZ-CZ','CZ-PZ','P7-T7','T7-FT9','FT9-FT10','FT10-T8','T8-P8'
'hh:mm:ss.mmm dd/mm/yyyy','uV','uV','uV','uV','uV','uV','uV','uV','uV','uV','uV','uV','uV','uV','uV','uV','uV','uV','uV','uV','uV','uV','uV'
'[03:01:41.000 07/11/2076]',-16.801,-33.211,34.383,-37.118,-45.324,14.066,-296.947,275.067,-83.614,-15.238,-116.825,75.018,-5.861,-15.238,-89.475,-28.132,32.821,-96.117,-33.602,-29.304,143.004,-57.436,-89.475
'[03:01:41.004 07/11/2076]',-23.443,-35.556,34.774,-46.496,-46.496,8.987,-304.762,270.379,-82.051,-32.039,-117.216,89.475,-26.569,27.350,-110.965,-31.648,35.946,-101.978,-33.993,-28.523,160.586,-49.621,-110.965
'[03:01:41.008 07/11/2076]',-20.317,-41.026,31.258,-42.198,-44.151,4.689,-304.762,271.160,-78.144,-11.331,-114.481,70.720,-31.648,78.926,-149.255,-31.258,46.496,-110.965,-30.476,-27.741,146.129,3.126,-149.255
'[03:01:41.012 07/11/2076]',-26.960,-35.946,30.085,-33.211,-41.807,0.781,-305.543,279.365,-83.614,-7.033,-89.866,58.217,-0.391,-16.801,-72.283,-31.648,48.059,-108.620,-29.304,-26.960,151.990,-77.753,-72.283
'[03:01:41.016 07/11/2076]',-20.317,-33.993,24.615,-39.853,-37.509,-0.391,-307.106,274.676,-86.349,5.470,-101.197,76.972,1.172,-6.642,-68.767,-29.695,46.496,-94.945,-23.834,-26.178,134.408,-64.860,-68.767
'[03:01:41.020 07/11/2076]',-13.675,-28.523,12.112,-34.383,-34.383,-7.033,-303.590,280.147,-78.926,18.755,-119.560,91.038,-14.457,11.331,-55.482,-28.523,42.979,-80.098,-11.331,-25.788,108.230,-51.966,-55.482
'[03:01:41.023 07/11/2076]',-1.954,-34.774,26.178,-49.621,-22.662,-7.424,-293.822,264.127,-72.283,8.596,-85.958,66.813,15.629,22.271,-85.177,-35.165,39.853,-71.893,-25.397,-25.006,123.858,-30.867,-85.177
'[03:01:41.027 07/11/2076]',-5.079,-37.118,29.304,-44.542,-19.145,-10.549,-288.352,261.392,-71.502,20.708,-75.800,48.840,26.178,34.774,-101.197,-36.337,38.681,-74.628,-28.523,-24.225,137.143,-25.788,-101.197
'[03:01:41.031 07/11/2076]',-7.424,-30.867,24.225,-35.165,-18.755,-16.801,-280.147,267.253,-55.873,21.099,-77.753,50.794,11.722,103.932,-134.408,-42.979,40.635,-69.939,-23.443,-23.443,121.514,29.304,-134.408
'[03:01:41.035 07/11/2076]',-0.391,-28.913,26.960,-40.244,-19.927,-23.053,-269.597,270.769,-55.092,11.331,-65.250,51.184,56.264,6.252,-74.628,-45.324,40.635,-57.827,-26.178,-23.443,98.071,-3.516,-74.628
'[03:01:41.039 07/11/2076]',-1.172,-25.006,22.662,-31.258,-22.271,-26.178,-262.173,276.630,-49.621,21.490,-63.687,42.589,-20.708,59.780,-52.357,-35.165,42.589,-53.138,-21.880,-22.662,81.661,-18.755,-52.357
'[03:01:41.043 07/11/2076]',-2.735,11.331,-5.079,-30.085,-21.490,-26.569,-253.578,276.239,-24.225,32.430,-79.707,60.562,-66.032,69.939,19.927,-33.993,40.635,-23.834,5.861,-21.099,10.159,-21.099,19.927
'[03:01:41.047 07/11/2076]',6.642,16.020,0.781,-35.165,-10.159,-18.755,-247.326,266.081,-10.159,35.946,-80.488,48.449,-25.397,44.151,8.596,-33.211,39.072,-19.927,0.000,-19.536,-0.391,0.781,8.596
'[03:01:41.051 07/11/2076]',5.470,10.549,10.549,-28.132,-3.126,-11.331,-245.372,259.829,-15.238,38.681,-64.860,30.867,-34.383,105.495,-38.681,-41.416,32.039,-30.867,-9.768,-20.317,16.020,40.244,-38.681
'[03:01:41.055 07/11/2076]',-2.344,30.476,0.391,-19.927,3.907,-10.940,-243.028,259.048,2.735,36.728,-79.316,36.337,-28.913,60.952,8.596,-43.761,25.397,-28.913,0.391,-21.099,-9.377,21.490,8.596
'[03:01:41.059 07/11/2076]',1.954,33.211,5.861,-19.536,12.112,-9.377,-237.558,256.703,15.238,28.913,-68.376,26.178,23.053,29.304,-7.814,-41.807,26.960,-29.695,-5.079,-19.145,-5.079,33.211,-7.814
'[03:01:41.063 07/11/2076]',4.298,21.880,14.457,-15.238,19.927,-14.066,-234.432,254.359,15.629,26.569,-62.906,9.768,23.053,-3.126,7.033,-35.946,22.662,-38.681,-13.675,-15.629,-12.894,20.317,7.033
'[03:01:41.066 07/11/2076]',-6.642,46.496,-0.781,-16.410,24.225,-16.801,-231.306,246.545,20.317,47.668,-86.349,25.006,-3.126,8.205,24.225,-20.708,15.238,-21.880,1.563,-12.112,-53.919,30.476,24.225
'[03:01:41.070 07/11/2076]',-14.066,48.840,0.391,-13.284,30.476,-19.927,-228.181,239.512,38.291,35.946,-107.057,35.165,-35.946,57.436,-1.563,-15.238,5.470,-20.317,0.391,-3.907,-69.548,66.422,-1.563
'[03:01:41.074 07/11/2076]',-14.847,37.509,16.410,-7.033,35.556,-23.834,-222.711,243.810,43.761,30.085,-90.256,16.410,-30.476,-7.033,49.621,-9.377,1.563,-28.523,-15.629,2.735,-73.846,14.457,49.621
'[03:01:41.078 07/11/2076]',-12.112,36.728,30.476,-14.066,43.761,-27.741,-214.505,239.902,30.867,42.198,-68.767,4.298,-17.973,1.954,30.476,-4.298,0.781,-23.053,-29.695,1.954,-42.589,-2.344,30.476
'[03:01:41.082 07/11/2076]',-13.675,35.165,34.774,-4.689,50.794,-32.039,-210.208,243.419,46.886,9.377,-76.972,19.145,-8.987,1.563,8.987,-0.781,-6.642,-25.397,-33.993,1.954,-39.853,13.284,8.987
'[03:01:41.086 07/11/2076]',-11.722,29.304,39.072,5.079,58.608,-37.509,-205.519,247.717,62.906,3.907,-89.866,26.569,-30.867,24.615,2.735,8.596,-11.331,-24.225,-38.291,3.516,-57.045,27.350,2.735
'[03:01:41.090 07/11/2076]',-11.722,22.662,37.118,16.020,59.389,-48.840,-199.267,254.359,42.198,14.066,-80.488,17.192,5.470,-6.252,-20.708,16.801,-16.020,-27.350,-36.337,-4.298,-37.118,23.053,-20.708
'[03:01:41.094 07/11/2076]',-8.987,18.755,23.053,37.509,58.217,-60.562,-186.764,261.392,39.072,17.582,-84.005,16.410,-10.940,40.635,-53.138,14.066,-20.708,-25.788,-22.271,-12.503,-37.509,58.999,-53.138
'[03:01:41.098 07/11/2076]',-10.940,16.410,23.053,47.277,53.529,-73.846,-180.513,278.584,48.840,10.940,-101.587,33.211,-34.383,24.615,-19.927,23.053,-25.006,-15.629,-22.271,-11.331,-63.297,43.370,-19.927
'[03:01:41.102 07/11/2076]',-25.006,11.331,23.053,65.641,41.416,-87.521,-172.698,296.166,11.722,17.973,-111.355,55.092,10.549,-40.244,-19.536,25.006,-28.523,-14.066,-22.271,-15.238,-34.774,12.894,-19.536
'[03:01:41.105 07/11/2076]',-32.039,7.033,21.490,79.707,33.211,-93.382,-163.321,300.855,10.549,-0.391,-100.415,50.794,-29.695,8.596,-42.589,25.788,-30.476,-11.722,-20.708,-16.410,-21.490,22.271,-42.589
'[03:01:41.109 07/11/2076]',-18.364,-12.503,20.317,89.866,30.085,-90.647,-159.414,300.073,3.907,-0.391,-91.429,55.482,-23.834,-2.735,-34.383,30.476,-26.960,-8.205,-19.536,-14.457,-26.960,15.629,-34.383
'[03:01:41.113 07/11/2076]',-25.788,-34.774,19.145,118.779,20.317,-91.429,-162.149,310.623,-30.476,5.470,-75.800,47.668,-7.424,-40.244,-37.118,32.039,-27.741,-22.662,-18.364,-14.847,-1.563,-8.596,-37.118
'[03:01:41.117 07/11/2076]',-23.053,-44.151,17.582,123.858,16.801,-88.694,-164.103,311.404,-22.662,0.781,-84.396,44.542,-44.151,-17.192,-40.244,41.026,-33.602,-23.053,-16.801,-16.020,2.735,-17.582,-40.244
'[03:01:41.121 07/11/2076]',-28.523,-42.979,17.192,121.905,10.549,-89.866,-166.447,314.139,-31.648,11.331,-91.819,64.860,-55.482,-28.132,-5.079,41.416,-34.383,-16.020,-16.410,-15.629,-3.907,-46.105,-5.079
'[03:01:41.125 07/11/2076]',-41.416,-44.933,17.192,134.408,3.516,-90.647,-164.493,317.656,-33.993,-8.596,-92.601,59.780,-90.256,-2.344,-26.960,44.151,-34.774,-23.053,-16.410,-14.457,5.861,-36.728,-26.960
'[03:01:41.129 07/11/2076]',-60.171,-39.463,16.801,143.394,-7.033,-90.647,-164.103,324.298,-43.761,-21.490,-74.237,55.873,-87.131,-39.463,-2.735,46.105,-32.821,-26.960,-16.020,-14.066,24.615,-80.879,-2.735
'[03:01:41.133 07/11/2076]',-65.250,-40.244,16.020,139.878,-19.927,-85.177,-161.758,319.219,-57.827,-9.377,-82.051,67.204,-85.568,-4.298,-30.476,39.072,-30.476,-23.834,-15.238,-14.066,26.178,-48.059,-30.476
'[03:01:41.137 07/11/2076]',-67.204,-45.714,15.629,139.096,-32.821,-81.661,-162.930,320.781,-61.343,7.814,-110.965,76.190,-104.713,50.012,-66.813,33.993,-26.960,-29.695,-14.847,-13.675,18.364,1.563,-66.813
'[03:01:41.141 07/11/2076]',-81.661,-42.589,15.238,143.004,-47.277,-78.926,-161.368,323.516,-79.316,2.344,-83.614,58.608,-37.900,-36.337,-58.999,32.430,-20.317,-39.463,-14.457,-13.284,44.542,-30.085,-58.999
'[03:01:41.145 07/11/2076]',-90.256,-35.556,14.847,140.659,-55.092,-69.548,-156.679,312.967,-91.429,13.284,-61.734,39.072,-12.894,-22.271,-88.303,24.225,-12.112,-40.635,-14.066,-12.503,63.297,-11.331,-88.303
'[03:01:41.148 07/11/2076]',-88.694,-37.118,14.457,139.487,-60.171,-62.515,-159.414,312.186,-80.879,9.377,-80.098,48.449,-35.165,-28.913,-57.045,18.755,-8.596,-47.668,-13.675,-12.503,63.687,-36.728,-57.045
'[03:01:41.152 07/11/2076]',-64.078,-44.542,14.066,126.593,-60.952,-54.310,-160.586,310.232,-76.972,-4.298,-76.581,61.343,-68.376,-18.755,-26.178,17.582,-2.735,-40.635,-13.284,-12.112,56.264,-58.608,-26.178
'[03:01:41.156 07/11/2076]',-61.734,-42.979,13.675,121.514,-67.204,-47.277,-155.116,303.199,-76.972,16.410,-82.051,51.575,-52.357,-22.271,-32.430,17.582,1.954,-43.370,-12.894,-11.722,51.184,-46.886,-32.430
'[03:01:41.160 07/11/2076]',-60.952,-30.476,13.284,112.918,-72.674,-39.463,-151.209,300.464,-73.455,24.225,-82.051,51.184,-104.713,55.092,-36.337,6.642,9.377,-39.463,-12.503,-11.331,51.575,-32.039,-36.337
'[03:01:41.164 07/11/2076]',-48.840,-16.801,12.894,95.336,-77.753,-34.383,-148.083,305.153,-76.190,30.867,-87.521,73.065,-89.475,37.900,-12.112,4.689,16.020,-18.755,-12.112,-10.940,32.821,-35.165,-12.112
'[03:01:41.168 07/11/2076]',-58.999,3.907,12.503,86.740,-80.879,-28.132,-137.143,293.431,-81.270,36.728,-66.422,59.780,-49.231,23.834,-19.536,-4.298,20.317,-9.377,-11.722,-10.549,40.244,-26.178,-19.536
'[03:01:41.172 07/11/2076]',-57.436,7.033,12.112,91.819,-79.316,-16.801,-134.408,287.179,-98.071,40.635,-38.291,51.184,-7.814,16.801,-35.946,-16.801,26.960,-8.596,-11.331,-10.159,58.999,-15.629,-35.946
'[03:01:41.176 07/11/2076]',-39.853,-1.563,11.722,104.322,-70.720,-5.079,-135.971,289.133,-64.860,32.430,-48.449,42.979,-56.654,80.098,-41.026,-18.364,32.821,-22.662,-10.940,-10.159,52.747,-1.954,-41.026
'[03:01:41.180 07/11/2076]',-37.509,-13.675,11.331,122.686,-70.720,3.907,-134.017,284.444,-73.455,27.741,-20.708,21.490,-21.880,87.131,-87.131,-22.271,39.853,-39.072,-10.549,-9.768,81.661,19.145,-87.131
'[03:01:41.184 07/11/2076]',-34.383,-12.112,10.940,124.640,-72.674,10.549,-136.361,289.524,-91.038,60.171,-26.960,24.615,5.470,74.628,-88.694,-23.053,46.496,-40.635,-10.159,-9.377,77.753,24.615,-88.694
'[03:01:41.188 07/11/2076]',-28.523,1.954,10.940,112.137,-65.641,17.973,-135.580,281.319,-69.939,54.701,-39.072,37.118,6.252,68.376,-67.985,-22.271,51.966,-35.946,-10.159,-9.377,56.654,25.397,-67.985
'[03:01:41.191 07/11/2076]',-14.457,15.629,10.549,91.429,-60.952,22.662,-128.938,272.332,-69.548,63.687,-11.722,30.476,26.960,16.801,-6.642,-23.443,60.952,-18.364,-9.768,-8.987,44.933,-22.271,-6.642
'[03:01:41.195 07/11/2076]',-3.907,19.145,10.159,82.051,-51.966,25.006,-126.593,263.736,-66.813,69.548,0.391,20.708,79.707,-97.289,61.734,-19.536,60.562,-8.987,-9.377,-8.596,25.397,-75.409,61.734
'[03:01:41.199 07/11/2076]',4.298,25.006,10.159,75.018,-38.291,30.476,-126.984,252.015,-22.662,32.821,-12.112,37.900,-41.416,48.449,44.933,-15.238,51.575,-0.781,-9.377,-8.596,-8.205,-28.523,44.933
'[03:01:41.203 07/11/2076]',10.159,14.066,9.768,83.614,-32.430,31.258,-127.766,248.889,-14.457,29.695,-31.258,52.747,-37.509,58.608,19.927,-3.516,44.933,-3.907,-8.987,-8.205,4.689,-28.523,19.927
'[03:01:41.207 07/11/2076]',17.973,8.205,9.377,89.475,-21.490,35.946,-124.249,238.339,-17.973,38.291,-16.410,39.463,-10.549,36.337,10.549,6.252,46.105,-9.377,-8.596,-7.814,7.424,-32.430,10.549
'[03:01:41.211 07/11/2076]',23.053,1.172,9.377,97.680,-13.284,37.118,-122.295,232.869,-14.457,32.039,-3.907,34.383,0.781,55.482,-25.397,17.582,46.105,-16.801,-8.596,-7.814,10.159,-9.377,-25.397
'[03:01:41.215 07/11/2076]',28.132,-7.033,8.987,103.932,-3.516,36.728,-124.640,227.790,-31.648,39.463,-9.768,51.184,94.554,-43.761,-28.523,27.741,46.886,-26.960,-8.205,-7.424,28.523,-34.774,-28.523
'[03:01:41.219 07/11/2076]',24.225,3.126,7.814,100.024,2.735,33.211,-122.686,224.274,-4.298,13.284,-19.145,62.125,5.861,44.542,-30.085,32.039,42.979,-27.741,-7.033,-7.814,-10.549,1.954,-30.085
'[03:01:41.223 07/11/2076]',13.284,11.331,8.205,97.289,2.344,24.615,-120.342,225.446,-2.344,3.907,-16.410,64.860,-11.331,23.053,-0.781,39.853,37.509,-27.350,-7.424,-7.033,-20.317,-24.615,-0.781
'[03:01:41.227 07/11/2076]',9.768,15.629,10.940,92.991,5.079,20.708,-112.918,218.022,0.000,2.735,-10.940,66.032,16.801,29.695,-29.695,41.807,33.211,-25.006,-10.159,-4.298,-10.940,-6.252,-29.695
'[03:01:41.230 07/11/2076]',1.563,35.556,12.112,81.661,5.861,18.755,-104.713,213.333,33.602,10.549,-43.370,71.111,-46.496,83.614,-12.894,49.231,30.476,-17.582,-11.331,-3.126,-50.012,8.596,-12.894
'[03:01:41.234 07/11/2076]',-6.252,56.264,7.814,72.674,6.252,21.490,-101.587,206.300,27.350,25.788,-35.556,66.032,-8.596,-16.410,56.264,54.310,28.132,-15.238,-7.033,-5.861,-63.297,-52.747,56.264
'[03:01:41.238 07/11/2076]',-7.814,54.310,3.516,73.455,11.722,25.006,-102.369,190.281,16.020,28.913,-25.788,60.562,118.388,-90.647,0.391,53.529,24.225,-25.006,-2.735,-9.377,-41.807,-18.364,0.391
'[03:01:41.242 07/11/2076]',-12.503,46.886,7.814,75.018,16.020,21.880,-103.541,184.811,43.761,-1.563,-36.337,52.747,23.834,-9.377,-3.126,48.449,20.317,-39.072,-7.033,-5.861,-46.105,-3.126,-3.126
'[03:01:41.246 07/11/2076]',-22.662,42.979,15.629,71.111,17.192,16.020,-107.057,181.685,41.807,-10.549,-27.350,40.635,40.244,-57.827,12.894,49.231,14.847,-46.886,-14.847,1.172,-48.449,-18.364,12.894
'[03:01:41.250 07/11/2076]',-34.774,40.244,32.430,44.542,19.927,8.987,-110.183,165.665,59.780,-36.337,-37.509,50.794,58.217,-68.767,-5.079,53.138,1.954,-39.463,-31.648,16.801,-52.357,1.563,-5.079
'[03:01:41.254 07/11/2076]',-46.496,39.463,53.529,14.847,23.053,0.391,-112.137,151.600,82.442,-34.383,-73.455,62.515,-24.615,-6.252,12.503,55.873,-6.642,-28.913,-52.747,33.602,-69.548,2.344,12.503
'[03:01:41.258 07/11/2076]',-49.231,36.728,50.012,10.549,23.443,-7.033,-110.183,143.785,85.177,-31.648,-72.283,44.542,-17.973,-16.020,-2.735,63.687,-8.987,-38.291,-49.231,35.165,-67.204,3.516,-2.735
'[03:01:41.262 07/11/2076]',-48.059,32.821,43.761,6.252,23.834,-10.159,-109.011,132.063,68.376,-32.821,-51.184,30.085,45.714,-27.741,-63.687,60.171,-12.503,-36.728,-42.979,30.476,-42.198,41.807,-63.687
'[03:01:41.266 07/11/2076]',-49.621,26.960,31.258,8.987,21.880,-14.066,-115.653,128.156,61.734,-48.449,-65.250,42.198,56.654,-14.457,-110.965,59.780,-20.317,-42.198,-30.476,19.145,-12.894,59.389,-110.965
'[03:01:41.270 07/11/2076]',-50.403,26.569,36.337,0.000,21.880,-14.847,-117.216,123.858,78.535,-42.198,-95.336,51.184,3.907,51.966,-119.951,56.654,-24.225,-34.774,-35.556,25.788,-32.821,90.256,-119.951
'[03:01:41.273 07/11/2076]',-50.012,28.913,41.026,-15.629,17.582,-12.503,-117.216,117.607,71.502,-44.151,-64.078,43.370,-0.391,25.397,-79.316,60.952,-25.397,-15.629,-40.244,30.476,-28.913,42.589,-79.316
'[03:01:41.277 07/11/2076]',-50.794,28.523,51.966,-33.993,14.847,-12.112,-117.607,112.137,76.972,-42.979,-57.827,39.072,-12.503,-53.529,21.490,60.171,-30.085,1.563,-51.184,40.244,-51.575,-33.993,21.490
'[03:01:41.281 07/11/2076]',-48.840,26.569,62.125,-51.184,10.159,-12.112,-116.044,107.839,64.469,-43.761,-50.794,55.092,3.907,-49.231,8.987,60.952,-30.085,24.225,-61.343,50.403,-62.906,-10.940,8.987
'[03:01:41.285 07/11/2076]',-47.668,23.053,60.171,-58.608,2.344,-15.238,-118.388,110.183,45.324,-42.979,-45.714,64.469,-6.642,-49.231,10.159,66.813,-32.039,35.165,-59.389,50.012,-61.343,-19.927,10.159
'[03:01:41.289 07/11/2076]',-45.324,26.569,51.575,-68.376,-1.954,-18.755,-118.779,106.667,22.271,-40.635,-34.774,67.204,35.165,-73.065,-17.192,69.939,-30.085,43.370,-50.794,41.416,-50.794,-5.861,-17.192
'[03:01:41.293 07/11/2076]',-42.589,28.913,44.542,-77.753,-5.079,-21.490,-121.514,103.932,29.304,-46.496,-46.886,75.800,-16.410,-10.159,-39.853,80.098,-30.085,50.794,-43.761,34.774,-53.529,9.768,-39.853
'[03:01:41.297 07/11/2076]',-31.258,26.178,30.085,-73.846,-3.126,-12.894,-126.984,96.899,12.112,-36.728,-26.960,69.548,-7.814,-1.954,-47.668,77.363,-25.397,49.621,-29.304,20.708,-39.853,7.033,-47.668
'[03:01:41.301 07/11/2076]',-29.304,24.615,16.410,-68.376,-2.735,-8.987,-132.454,89.475,-1.172,-33.211,-18.755,58.999,-24.615,-3.516,-43.370,78.144,-26.569,37.509,-15.629,7.033,-37.118,0.000,-43.370
'[03:01:41.305 07/11/2076]',-30.867,23.443,8.205,-60.952,-5.861,-7.033,-134.017,89.084,-11.331,-42.589,-15.629,61.734,-7.424,11.331,-81.661,70.720,-29.695,31.648,-7.424,-0.391,-33.211,41.416,-81.661
'[03:01:41.309 07/11/2076]',-23.053,14.066,-1.172,-44.542,-7.814,-3.516,-133.236,92.210,-43.370,-32.821,12.112,56.654,1.954,14.066,-89.084,65.641,-20.708,22.271,1.954,-9.768,0.391,19.145,-89.084
'[03:01:41.313 07/11/2076]',-21.880,20.708,-2.735,-47.277,-8.596,-5.079,-132.845,97.289,-31.258,-10.159,-12.503,49.621,-62.515,23.834,-39.072,73.065,-17.973,22.662,3.516,-10.940,-38.291,0.781,-39.072
'[03:01:41.316 07/11/2076]',-18.755,27.350,0.000,-55.092,-10.159,-2.735,-132.063,100.024,-37.900,-5.079,-19.536,70.330,-51.184,8.596,-24.615,75.800,-20.317,38.291,0.781,-7.814,-62.125,8.205,-24.615
'[03:01:41.320 07/11/2076]',-14.457,26.178,-3.126,-49.231,-10.549,0.000,-132.063,102.369,-37.118,6.252,-35.556,84.786,-65.250,-4.689,16.410,71.893,-16.410,39.463,3.907,-10.549,-67.985,-24.225,16.410
'[03:01:41.324 07/11/2076]',-8.596,21.880,-3.126,-41.807,-6.642,3.516,-127.375,99.634,-34.383,-4.689,-17.973,67.985,-38.681,-60.952,38.291,71.893,-8.596,27.741,3.907,-11.331,-78.535,-34.383,38.291
'[03:01:41.328 07/11/2076]',-2.735,13.675,0.391,-33.993,-3.126,10.159,-120.342,91.038,-35.556,-7.424,0.391,53.529,0.391,-67.595,10.159,66.813,-1.954,19.927,0.391,-10.159,-52.357,-23.834,10.159
'[03:01:41.332 07/11/2076]',-7.033,19.536,-1.954,-29.695,-3.126,16.020,-118.779,86.740,-28.132,-2.344,-21.099,68.376,-5.861,-32.430,-10.940,66.422,3.907,12.894,2.735,-12.112,-56.264,0.781,-10.940
'[03:01:41.336 07/11/2076]',-6.642,30.867,-6.642,-31.258,2.344,22.271,-117.998,79.707,0.781,-18.755,-34.774,75.800,-48.449,23.443,-20.708,69.158,10.159,5.861,7.424,-9.768,-75.800,21.490,-20.708
'[03:01:41.340 07/11/2076]',-6.252,32.430,-7.814,-25.006,5.470,29.304,-115.653,73.455,16.410,-14.457,-37.509,60.952,-51.966,56.264,-49.231,71.111,12.112,-3.516,8.596,-11.722,-58.608,30.867,-49.231
'[03:01:41.344 07/11/2076]',-7.033,49.231,-0.391,-33.211,7.033,39.463,-107.839,68.767,23.443,-3.516,-26.960,61.343,-45.714,106.667,-71.893,65.641,24.225,7.424,1.172,-13.675,-74.628,84.005,-71.893
'[03:01:41.348 07/11/2076]',-13.284,40.244,7.814,-19.145,0.391,37.900,-105.885,83.223,12.503,-0.391,-33.602,68.767,30.867,-33.211,-11.331,62.125,30.476,-1.954,-7.033,-7.033,-55.092,10.159,-11.331
'[03:01:41.352 07/11/2076]',-16.020,59.389,38.291,-51.575,0.391,44.933,-91.038,76.581,19.927,30.085,-49.231,89.084,30.085,-46.105,37.900,68.376,41.026,30.867,-37.509,16.410,-89.475,-4.298,37.900
'[03:01:41.355 07/11/2076]',-24.225,69.158,58.999,-62.125,-4.689,48.449,-75.018,73.846,19.927,69.158,-52.357,80.879,-10.940,2.735,58.608,67.595,51.966,46.886,-58.217,26.178,-109.792,7.033,58.608
'[03:01:41.359 07/11/2076]',-21.099,75.409,60.952,-59.389,-0.781,57.045,-66.032,66.422,33.993,68.376,-47.668,72.674,43.370,-59.780,84.396,59.780,57.045,45.714,-60.171,42.198,-126.593,-7.033,84.396
'[03:01:41.363 07/11/2076]',-12.112,77.753,53.529,-40.635,4.689,67.204,-61.343,66.813,45.714,55.482,-31.258,55.482,-14.066,31.258,51.575,56.654,59.780,37.118,-52.747,35.946,-114.090,14.457,51.575
'[03:01:41.367 07/11/2076]',-13.675,77.363,52.357,-30.867,6.642,72.674,-57.436,61.343,64.860,38.681,-28.132,40.635,-46.496,91.429,17.582,53.919,57.436,27.741,-51.575,36.728,-111.355,46.886,17.582
'[03:01:41.371 07/11/2076]',-13.675,78.144,42.979,-15.629,7.814,75.800,-56.264,64.078,55.092,29.695,-19.927,42.979,1.563,73.455,-7.033,40.244,57.827,18.755,-42.198,22.662,-79.316,58.999,-7.033
'[03:01:41.375 07/11/2076]',-6.642,72.283,47.668,-10.159,9.768,71.502,-55.873,76.972,50.794,30.476,-13.284,41.416,17.973,3.516,39.072,48.840,61.734,19.927,-46.886,35.165,-84.786,1.954,39.072
'[03:01:41.379 07/11/2076]',0.391,74.628,54.310,-16.801,16.410,71.502,-50.403,75.018,44.151,60.562,-3.516,30.085,13.675,26.178,44.933,45.714,67.985,32.039,-53.529,39.463,-85.177,1.172,44.933
'[03:01:41.383 07/11/2076]',0.000,78.144,55.092,-16.410,23.053,67.985,-52.357,78.144,45.324,53.919,-7.033,42.979,34.774,23.053,37.118,39.853,60.952,36.337,-54.310,41.416,-84.786,12.894,37.118
'[03:01:41.387 07/11/2076]',2.344,71.893,60.952,-19.927,28.132,63.297,-56.264,79.707,49.621,48.449,-19.927,56.264,34.383,14.066,45.714,40.244,54.701,40.635,-60.171,30.476,-76.581,12.503,45.714
'[03:01:41.391 07/11/2076]',1.954,64.469,57.436,-15.238,28.132,58.608,-54.310,75.800,42.589,48.449,3.126,35.165,10.159,49.231,28.523,42.198,57.436,30.476,-56.654,48.449,-67.985,-0.391,28.523
'[03:01:41.395 07/11/2076]',-1.954,57.827,40.635,-4.298,25.788,51.575,-54.310,69.548,36.728,21.880,28.913,13.675,36.728,38.681,-13.284,41.026,53.919,13.675,-39.853,32.430,-27.741,1.954,-13.284
'[03:01:41.398 07/11/2076]',-2.344,51.966,35.556,-5.470,24.615,48.840,-61.734,67.985,28.523,30.867,7.033,23.053,87.912,4.298,-45.714,44.933,52.357,3.907,-34.774,28.913,-16.020,17.582,-45.714
'[03:01:41.402 07/11/2076]',-4.298,51.575,30.867,-12.112,19.927,47.668,-70.720,68.376,25.006,43.761,-15.629,32.821,51.966,8.987,-30.085,55.873,52.747,0.000,-30.085,28.523,-30.476,0.391,-30.085
'[03:01:41.406 07/11/2076]',-1.563,51.575,12.894,-7.033,18.755,44.933,-76.581,67.595,14.457,33.993,0.391,24.615,125.031,-24.615,-77.753,52.357,51.575,-10.549,-12.112,12.503,3.516,15.238,-77.753
'[03:01:41.410 07/11/2076]',-0.391,51.575,27.741,-32.430,16.410,46.105,-84.396,67.985,7.424,46.496,-3.516,39.463,107.839,-64.469,-11.722,59.389,51.966,7.033,-26.960,23.834,-20.708,-26.960,-11.722
'[03:01:41.414 07/11/2076]',-1.172,45.324,34.383,-50.794,9.377,41.416,-95.336,70.720,17.973,28.132,-22.662,69.548,-6.642,14.066,14.457,72.283,48.059,18.364,-33.602,34.383,-41.026,-48.059,14.457
'[03:01:41.418 07/11/2076]',-1.172,39.463,20.317,-45.324,3.126,34.774,-96.508,71.502,0.391,28.132,-4.689,62.515,28.132,-19.927,5.861,72.674,50.403,15.629,-19.536,28.523,-17.192,-67.985,5.861
'[03:01:41.422 07/11/2076]',1.563,36.728,9.377,-55.482,1.563,33.993,-104.322,62.125,0.391,25.788,-11.331,59.780,-11.331,26.178,-11.722,72.283,43.761,13.675,-8.596,14.847,-2.344,-62.906,-11.722
'[03:01:41.426 07/11/2076]',2.344,30.085,-7.814,-45.714,-2.344,33.602,-113.700,61.343,2.735,8.987,-23.053,55.482,4.689,30.867,-58.217,67.595,35.165,-2.344,8.596,-5.861,3.126,-15.629,-58.217
'[03:01:41.430 07/11/2076]',4.298,20.317,-23.834,-25.397,-5.079,30.476,-117.998,67.204,-0.391,-4.298,-12.112,37.900,44.933,-10.549,-69.548,55.873,31.258,-19.145,24.615,-22.662,37.509,-28.132,-69.548
'[03:01:41.434 07/11/2076]',5.079,24.225,-23.443,-37.900,-3.907,30.085,-121.905,63.687,0.391,-17.973,-10.159,45.324,30.085,22.662,-88.694,52.747,23.053,-14.457,24.225,-25.788,29.695,0.781,-88.694
'[03:01:41.438 07/11/2076]',0.000,26.960,-18.364,-43.761,-6.642,26.569,-124.640,68.376,2.735,-23.834,-27.741,62.125,4.689,32.039,-80.488,57.045,17.973,-11.722,19.145,-21.099,14.847,3.907,-80.488
'[03:01:41.441 07/11/2076]',2.344,19.145,-19.536,-27.741,-6.642,24.225,-121.514,76.972,-3.907,-16.410,-18.364,49.621,27.350,-17.582,-55.873,56.654,23.834,-21.880,20.317,-17.973,23.443,-27.741,-55.873
'[03:01:41.445 07/11/2076]',2.344,22.662,-19.536,-32.821,-9.377,26.569,-118.388,73.455,-14.066,4.298,-3.907,36.337,35.165,-58.999,-14.457,60.562,30.476,-14.457,20.317,-12.112,4.689,-55.482,-14.457
'[03:01:41.449 07/11/2076]',-5.079,22.271,-16.410,-36.337,-12.503,28.132,-123.077,70.720,-11.722,18.364,-31.648,44.933,22.662,-33.993,-33.602,64.860,25.788,-10.940,17.192,-2.735,-13.675,-20.317,-33.602
'[03:01:41.453 07/11/2076]',-14.066,19.927,-15.629,-27.741,-16.410,28.913,-121.905,71.111,-5.470,18.755,-48.449,51.184,59.780,-91.038,-13.284,61.343,21.880,-12.894,16.410,5.861,-28.132,-22.271,-13.284
'[03:01:41.457 07/11/2076]',-14.847,18.755,-4.689,-37.509,-17.582,34.383,-112.918,56.654,2.735,19.536,-21.880,32.039,-8.987,-2.344,-16.020,61.343,27.350,-1.172,5.470,19.145,-33.211,-14.847,-16.020
'[03:01:41.461 07/11/2076]',-12.503,15.629,2.735,-37.118,-12.112,35.556,-108.620,54.310,-1.563,11.722,1.954,16.410,7.424,-7.033,-30.476,59.389,24.225,-6.252,-1.954,19.927,-14.457,-17.582,-30.476
'[03:01:41.465 07/11/2076]',-8.205,14.066,5.861,-26.960,-3.126,38.681,-105.885,54.310,16.801,10.549,-16.020,23.443,-7.814,5.470,-19.927,58.608,23.053,-5.470,-5.079,28.523,-25.397,-16.020,-19.927
'[03:01:41.469 07/11/2076]',-5.079,11.722,8.205,-24.225,0.391,38.681,-103.932,55.482,9.377,16.410,-16.410,32.430,-27.741,11.331,-2.735,62.515,23.443,3.907,-7.424,40.244,-47.668,-14.847,-2.735
'[03:01:41.473 07/11/2076]',-3.907,12.894,12.503,-25.788,2.735,35.556,-100.024,57.045,19.145,12.112,-14.066,24.225,-34.383,32.430,-14.066,58.999,23.834,10.549,-11.722,45.324,-37.900,-9.377,-14.066
'[03:01:41.477 07/11/2076]',-3.516,9.768,17.582,-24.615,3.126,31.648,-96.899,60.171,29.695,8.205,-17.582,16.020,-19.145,54.310,-51.966,54.701,23.053,12.112,-16.801,48.840,-33.211,28.132,-51.966
'[03:01:41.480 07/11/2076]',-6.642,4.298,21.880,-15.238,-1.563,26.960,-94.164,72.674,28.523,13.284,-23.834,31.258,-28.523,62.515,-35.165,51.966,24.615,26.569,-21.099,66.813,-47.277,28.523,-35.165
'[03:01:41.484 07/11/2076]',0.000,8.596,29.304,-20.708,3.126,30.867,-87.912,70.330,36.337,4.689,-3.907,17.973,-29.304,123.077,-76.581,38.681,25.788,32.430,-28.523,59.389,-27.350,62.515,-76.581
'[03:01:41.488 07/11/2076]',-1.954,7.424,28.913,-4.298,1.563,32.039,-92.210,87.521,25.397,11.331,-6.642,14.847,-20.317,80.879,-50.012,36.337,23.053,22.271,-28.132,53.138,0.781,9.377,-50.012
'[03:01:41.492 07/11/2076]',6.252,6.642,34.774,0.000,5.470,36.337,-87.912,93.382,18.364,56.264,-19.536,21.490,14.066,-17.192,40.244,40.635,32.430,41.026,-33.993,73.846,-43.370,-40.244,40.244
'[03:01:41.496 07/11/2076]',19.145,6.642,41.416,-6.252,12.112,41.026,-80.488,87.521,16.410,52.357,0.391,3.126,30.476,11.722,0.391,30.867,36.337,40.244,-40.635,64.078,-5.470,-28.523,0.391
'[03:01:41.500 07/11/2076]',16.410,4.298,39.853,1.563,7.814,39.072,-83.223,98.462,21.880,45.714,-10.159,7.033,68.767,-33.993,3.126,26.960,32.039,39.072,-39.072,65.641,-4.298,-28.523,3.126
'[03:01:41.504 07/11/2076]',16.410,3.907,39.463,2.735,6.252,35.556,-84.005,104.713,11.331,64.860,-25.788,20.317,123.077,-46.496,-21.490,16.410,33.993,42.979,-38.681,65.641,-8.596,10.940,-21.490
'[03:01:41.508 07/11/2076]',16.410,-3.907,48.840,4.689,2.344,28.523,-78.535,113.309,24.615,41.416,-10.159,7.424,68.376,23.443,-37.900,10.159,30.867,37.509,-48.059,66.032,5.470,19.145,-37.900
'[03:01:41.512 07/11/2076]',13.675,-7.033,54.701,10.549,2.344,21.099,-77.363,125.421,33.993,25.006,-4.689,-3.907,61.734,-36.337,18.364,6.642,23.443,31.258,-53.919,62.125,26.960,-54.701,18.364
'[03:01:41.516 07/11/2076]',12.112,0.391,49.231,10.159,5.079,16.801,-78.535,128.156,16.801,39.072,-14.457,16.020,98.852,-17.973,-23.834,1.172,18.755,36.728,-48.449,57.436,39.072,-19.145,-23.834
'[03:01:41.520 07/11/2076]',9.768,-2.735,44.151,19.145,9.377,5.470,-74.237,129.328,42.979,5.470,-37.118,28.913,33.211,30.085,-27.350,5.079,6.642,25.788,-43.370,52.357,44.933,-25.397,-27.350
'[03:01:41.523 07/11/2076]',13.675,-3.907,46.496,12.503,18.364,1.563,-76.190,125.031,59.389,-4.689,-26.178,10.549,57.436,3.516,-30.476,8.205,2.735,18.364,-45.714,50.012,52.747,-32.430,-30.476
'[03:01:41.527 07/11/2076]',16.801,-3.516,31.258,23.834,22.662,-1.172,-82.051,129.328,50.794,-13.284,-10.940,-1.172,108.620,16.020,-107.057,7.033,0.781,-3.126,-30.476,26.960,76.190,20.708,-107.057
'[03:01:41.531 07/11/2076]',10.940,-10.159,43.370,26.178,21.099,-11.722,-85.568,147.302,66.813,-29.304,-41.416,20.708,47.277,-26.960,-28.523,23.834,-3.126,-9.377,-42.589,36.728,49.231,-47.277,-28.523
'[03:01:41.535 07/11/2076]',14.847,-7.814,50.012,21.490,27.350,-9.377,-70.330,132.454,70.720,-12.503,-53.529,25.397,69.939,-30.867,-37.509,29.695,1.563,-3.907,-49.231,44.151,52.747,-46.496,-37.509
'[03:01:41.539 07/11/2076]',11.331,-3.126,48.449,34.774,25.788,-12.894,-68.767,149.255,73.846,-28.132,-48.449,23.834,71.502,-29.304,-50.403,28.523,1.172,-10.159,-47.668,35.946,63.297,-43.370,-50.403
'[03:01:41.543 07/11/2076]',10.940,1.172,44.151,44.542,26.178,-14.457,-62.125,152.381,71.893,-19.927,-64.078,30.476,71.111,-16.410,-68.767,33.211,1.954,-7.424,-43.370,34.774,64.078,-29.695,-68.767
'[03:01:41.547 07/11/2076]',14.457,1.172,42.198,51.575,25.788,-8.987,-57.827,151.600,60.171,-15.238,-53.138,26.178,119.560,-58.999,-71.893,29.695,3.907,-5.079,-41.416,33.211,78.144,-37.900,-71.893
'[03:01:41.551 07/11/2076]',17.973,7.814,28.523,64.860,26.569,-3.126,-58.217,155.897,49.231,-18.364,-39.072,17.582,100.415,-56.264,-61.734,27.350,1.563,-13.284,-27.741,16.020,84.786,-51.575,-61.734
'[03:01:41.555 07/11/2076]',16.020,13.675,33.602,63.687,25.006,0.000,-50.794,154.335,51.184,-13.675,-48.059,26.569,93.382,-52.357,-51.966,26.960,2.735,-10.549,-32.821,21.490,74.628,-51.184,-51.966
'[03:01:41.559 07/11/2076]',23.834,17.192,25.006,75.800,28.132,5.079,-39.853,149.255,46.886,-12.894,-34.383,20.708,82.833,-57.045,-33.211,28.523,12.503,-16.020,-24.225,14.847,99.243,-96.117,-33.211
'[03:01:41.563 07/11/2076]',26.569,21.099,25.397,82.442,29.304,10.940,-30.867,146.129,61.734,-31.648,-23.443,8.596,73.455,-32.039,-51.966,25.006,16.801,-19.927,-24.615,14.847,79.707,-53.919,-51.966
'[03:01:41.566 07/11/2076]',18.364,24.615,23.053,85.568,25.397,9.377,-29.304,147.302,75.018,-41.416,-45.324,14.847,55.092,-15.629,-60.952,24.225,10.940,-26.178,-22.271,12.112,60.562,-25.006,-60.952
'[03:01:41.570 07/11/2076]',10.159,27.350,29.695,78.535,19.536,10.159,-28.523,145.739,62.906,-38.291,-52.747,27.350,46.496,-26.178,-45.714,24.615,7.814,-17.192,-28.913,19.536,50.403,-30.867,-45.714
'[03:01:41.574 07/11/2076]',7.814,23.834,21.490,84.396,17.582,5.861,-25.006,141.832,53.529,-49.231,-28.913,8.596,62.125,-9.377,-88.694,19.145,8.596,-27.741,-20.708,11.722,41.026,26.178,-88.694
'[03:01:41.578 07/11/2076]',3.126,19.145,19.145,91.038,14.457,-1.172,-23.053,144.567,44.933,-37.509,-22.662,-3.907,54.310,-35.165,-49.231,11.331,6.252,-33.602,-18.364,10.159,54.310,-16.801,-49.231
'[03:01:41.582 07/11/2076]',-1.172,23.834,40.244,63.687,16.410,-0.781,-23.053,135.189,46.105,-11.722,-49.231,19.927,59.780,-74.237,3.907,14.457,5.079,-11.722,-39.463,31.258,19.145,-40.244,3.907
'[03:01:41.586 07/11/2076]',-0.781,26.569,33.602,59.780,21.880,0.391,-24.225,122.686,54.310,-27.741,-51.184,25.788,5.861,16.410,-29.695,8.987,3.126,-16.020,-32.821,24.225,7.814,11.331,-29.695
'[03:01:41.590 07/11/2076]',-1.172,26.178,26.960,57.827,23.443,-1.563,-24.225,114.090,37.509,-12.894,-38.681,14.847,51.575,-45.714,-13.675,8.205,-2.344,-17.973,-26.178,17.973,0.391,4.298,-13.675
'[03:01:41.594 07/11/2076]',-2.735,28.132,35.946,39.072,23.053,-2.735,-23.834,105.495,34.774,-8.596,-28.913,19.927,-14.457,-37.900,50.012,19.145,-8.987,-0.391,-35.165,26.960,-32.821,-37.509,50.012
'[03:01:41.598 07/11/2076]',-1.172,28.132,23.053,42.198,26.178,-6.642,-21.490,96.508,28.913,-14.457,-27.350,27.741,-10.159,28.913,-25.006,20.317,-10.549,-0.781,-22.271,14.066,-23.053,26.960,-25.006
'[03:01:41.602 07/11/2076]',-0.781,28.913,11.722,46.496,24.225,-16.801,-19.145,98.852,-5.079,0.391,-22.271,43.761,22.662,-10.549,-14.457,18.755,-14.066,2.735,-10.940,3.126,-9.768,4.298,-14.457
'[03:01:41.605 07/11/2076]',-3.516,36.337,23.053,23.443,23.443,-21.099,-10.940,89.084,30.867,-8.596,-32.821,42.979,-57.045,64.860,-3.516,27.741,-17.973,27.350,-22.271,15.238,-55.092,30.085,-3.516
'[03:01:41.609 07/11/2076]',1.172,39.072,1.563,35.946,25.397,-21.490,-9.768,84.396,17.582,-8.596,-23.053,41.026,-19.145,58.217,-31.258,18.364,-17.582,19.536,-0.781,-5.861,-25.006,36.728,-31.258
'[03:01:41.613 07/11/2076]',6.252,40.244,-0.781,30.085,25.397,-19.145,-8.205,78.535,17.192,-12.503,-1.954,35.946,-40.635,45.324,17.973,14.847,-21.880,30.867,1.563,-8.596,-45.324,11.331,17.973
'[03:01:41.617 07/11/2076]',1.563,43.370,-2.735,24.225,17.973,-20.708,-6.642,76.972,12.894,-3.126,2.344,33.993,-37.118,20.708,39.463,21.880,-28.913,42.198,3.516,-9.768,-65.250,1.954,39.463
'[03:01:41.621 07/11/2076]',0.781,46.105,-7.424,24.615,14.847,-21.880,-5.079,77.363,-6.642,14.847,0.391,43.370,-24.225,-15.238,72.283,17.973,-32.039,50.012,8.205,-14.066,-60.171,-32.039,72.283
'[03:01:41.625 07/11/2076]',4.689,46.886,-16.410,29.695,9.768,-22.271,0.781,77.363,-16.801,26.569,13.284,37.509,2.344,-12.894,51.184,19.927,-26.960,55.092,17.192,-23.053,-45.324,-26.569,51.184
'[03:01:41.629 07/11/2076]',3.126,43.370,-32.430,43.370,-1.954,-25.006,3.516,80.879,-33.602,22.271,23.834,23.443,24.615,-32.821,28.132,15.238,-25.788,48.840,33.211,-39.072,-26.960,-17.582,28.132
'[03:01:41.633 07/11/2076]',-2.344,46.105,-32.039,42.979,-11.331,-21.880,3.126,86.740,-33.993,16.410,14.847,36.728,-2.344,18.364,6.642,11.331,-26.178,55.873,32.821,-38.681,-24.225,4.298,6.642
'[03:01:41.637 07/11/2076]',-7.424,43.370,-33.993,50.403,-20.317,-19.536,0.000,94.554,-35.165,5.470,14.457,49.231,-9.768,42.198,0.391,0.391,-22.662,55.092,34.774,-40.635,-17.192,15.629,0.391
'[03:01:41.641 07/11/2076]',-8.596,39.463,-27.741,58.608,-28.132,-15.238,3.126,103.541,-47.277,26.960,25.788,34.383,-7.814,26.569,18.364,2.735,-9.768,49.231,28.523,-33.602,-12.112,-9.768,18.364
'[03:01:41.645 07/11/2076]',-3.126,41.807,-18.364,57.045,-23.834,-8.205,9.768,100.415,-37.509,24.615,47.668,21.880,-5.079,-20.317,80.488,0.781,0.391,51.575,19.145,-24.615,-21.490,-60.562,80.488
'[03:01:41.648 07/11/2076]',3.516,46.886,-12.503,50.794,-17.192,0.391,2.735,102.369,-45.714,49.621,39.853,36.337,12.894,10.940,51.966,3.126,11.331,58.999,13.284,-18.364,-13.284,-42.198,51.966
'[03:01:41.652 07/11/2076]',3.516,48.840,-16.410,51.184,-14.457,1.563,-7.424,108.620,-26.178,41.026,7.814,43.761,-37.900,56.654,38.291,8.987,14.066,49.621,17.192,-22.271,-22.271,-25.788,38.291
'[03:01:41.656 07/11/2076]',2.735,49.231,-21.490,48.840,-17.192,1.172,-5.470,101.587,-37.509,30.476,29.304,37.509,14.457,25.397,13.675,4.689,18.364,44.151,22.271,-26.960,1.954,-21.099,13.675
'[03:01:41.660 07/11/2076]',0.391,44.542,-7.033,39.463,-14.847,-0.781,0.391,93.773,-47.277,56.264,25.006,39.463,48.059,14.847,4.298,5.079,25.788,49.621,7.814,-12.112,10.159,-20.317,4.298
'[03:01:41.664 07/11/2076]',-4.689,35.946,5.470,32.430,-13.675,-8.596,-1.172,96.508,-24.615,49.621,-10.549,59.389,-7.814,86.349,-18.755,12.894,26.178,44.933,-4.689,0.781,-18.364,24.225,-18.755
'[03:01:41.668 07/11/2076]',-5.470,27.741,28.132,17.192,-14.457,-10.549,10.940,83.614,-40.635,78.535,4.689,53.529,67.204,24.615,-12.112,15.629,35.556,48.840,-27.350,21.880,-26.960,22.271,-12.112
'[03:01:41.672 07/11/2076]',-0.781,21.880,39.072,3.907,-7.424,-6.252,7.033,71.893,-29.304,85.177,2.344,42.979,48.449,55.092,-18.364,14.847,41.416,50.403,-38.291,33.602,-22.662,24.225,-18.364
'[03:01:41.676 07/11/2076]',3.907,14.457,42.198,5.079,1.954,-1.954,-0.391,68.767,17.973,64.078,-19.536,32.821,-40.244,153.162,-31.648,14.457,39.463,36.728,-41.416,38.291,-44.542,64.469,-31.648
'[03:01:41.680 07/11/2076]',4.298,5.470,53.529,-1.954,0.781,-0.781,-0.781,63.297,15.238,62.125,-3.126,17.973,-24.615,87.912,16.410,11.331,41.416,33.993,-52.747,49.231,-33.993,8.596,16.410
'[03:01:41.684 07/11/2076]',3.516,5.861,58.217,-17.582,5.861,-0.391,-2.735,48.449,17.973,66.422,-6.642,12.112,-0.781,96.117,-14.457,9.377,37.118,28.523,-57.436,53.919,-16.020,18.755,-14.457
'[03:01:41.688 07/11/2076]',-7.814,0.781,73.846,-27.741,4.689,-7.814,10.159,30.867,35.556,68.767,-35.165,22.271,-28.132,121.905,-14.457,12.112,28.913,32.821,-73.065,77.753,-50.794,49.231,-14.457
'[03:01:41.691 07/11/2076]',-10.159,-10.940,77.363,-24.615,2.344,-16.410,12.112,32.821,36.728,62.906,-24.615,10.549,10.549,100.024,-41.026,15.629,26.569,25.397,-76.581,76.190,-24.615,53.919,-41.026
'[03:01:41.695 07/11/2076]',-7.424,-14.457,69.548,-17.582,5.079,-17.582,16.801,25.397,36.728,68.767,-17.192,-7.424,65.641,79.316,-77.363,12.503,23.053,23.053,-68.767,67.985,-8.596,82.833,-77.363
'[03:01:41.699 07/11/2076]',-17.582,-19.536,88.694,-21.099,1.563,-20.708,35.556,13.675,74.628,41.807,-45.324,11.722,27.350,72.674,-30.476,13.284,8.205,39.072,-87.912,99.634,-54.310,81.661,-30.476
'[03:01:41.703 07/11/2076]',-22.662,-16.410,92.210,-17.973,2.735,-19.927,50.403,1.954,99.243,42.198,-75.409,23.443,9.768,75.800,-7.814,10.940,0.000,48.840,-91.429,101.978,-64.078,85.958,-7.814
'[03:01:41.707 07/11/2076]',-19.536,-15.238,102.759,-30.476,5.861,-16.801,50.794,-2.735,99.634,49.231,-62.125,4.298,43.370,53.138,-14.457,8.987,-1.172,48.059,-101.978,123.077,-73.846,88.303,-14.457
'[03:01:41.711 07/11/2076]',-26.960,-18.364,112.137,-32.430,3.516,-15.238,44.151,0.391,110.965,37.509,-58.217,-12.112,46.496,66.422,-36.728,1.563,-10.549,39.072,-111.355,119.951,-54.701,106.667,-36.728
'[03:01:41.715 07/11/2076]',-34.383,-25.397,105.104,-16.801,2.344,-19.536,53.529,-9.377,129.328,14.066,-78.144,-0.391,28.132,30.867,-1.954,7.424,-24.225,38.681,-104.322,135.971,-62.515,74.237,-1.954
'[03:01:41.719 07/11/2076]',-38.681,-31.648,98.071,-14.066,3.516,-24.615,51.966,-16.801,150.427,-21.490,-93.382,1.954,-13.675,112.137,-71.893,10.549,-38.291,30.085,-97.289,120.342,-37.900,132.845,-71.893
'[03:01:41.723 07/11/2076]',-51.575,-35.165,95.726,-9.377,0.000,-34.383,56.264,-22.271,171.136,-58.217,-96.899,-5.470,2.735,51.575,-55.092,9.768,-57.827,23.053,-94.945,117.216,-20.317,108.620,-55.092
'[03:01:41.727 07/11/2076]',-57.436,-38.291,101.197,-8.596,0.391,-42.589,85.568,-47.277,179.731,-78.926,-86.349,-10.159,-21.490,10.940,5.861,6.642,-69.939,44.151,-100.415,132.063,-33.211,78.535,5.861
'[03:01:41.730 07/11/2076]',-62.125,-37.900,95.726,-8.596,-0.391,-48.059,91.038,-54.701,181.294,-75.409,-110.574,-3.907,-42.979,69.939,-42.589,5.079,-80.098,41.807,-94.945,126.203,-37.900,142.613,-42.589
'[03:01:41.734 07/11/2076]',-66.813,-35.556,91.038,-8.987,-1.172,-48.840,76.972,-47.668,162.930,-85.958,-89.475,-20.317,-5.861,30.476,-48.840,-8.205,-89.475,30.476,-90.256,116.825,-4.689,124.249,-48.840
'[03:01:41.738 07/11/2076]',-69.939,-37.118,83.614,-1.954,1.172,-48.449,70.720,-48.840,159.414,-96.117,-89.084,-26.178,-5.470,-49.621,14.847,-11.331,-99.243,22.662,-82.833,118.779,-9.768,66.032,14.847
'[03:01:41.742 07/11/2076]',-72.283,-41.026,74.628,5.861,0.781,-51.575,55.482,-36.728,147.302,-109.011,-82.442,-32.039,-6.642,-23.053,-35.165,-10.159,-107.057,7.814,-73.846,126.984,-12.503,97.680,-35.165
'[03:01:41.746 07/11/2076]',-80.488,-45.714,71.111,18.364,-2.735,-57.827,41.416,-17.582,141.050,-122.686,-75.018,-52.357,-21.490,-41.026,-37.509,-8.205,-119.951,-7.424,-70.330,113.700,21.099,63.297,-37.509
'[03:01:41.750 07/11/2076]',-91.429,-41.026,71.111,23.834,-4.689,-60.171,57.827,-28.523,137.924,-134.017,-71.893,-48.840,12.503,-131.282,15.629,-14.066,-134.408,12.503,-70.330,115.653,1.563,50.012,15.629
'[03:01:41.754 07/11/2076]',-102.759,-32.821,67.204,30.867,-8.596,-63.687,67.204,-31.648,125.812,-129.328,-79.707,-42.589,-100.415,6.642,-18.755,-13.284,-146.129,26.178,-66.422,103.932,7.033,94.945,-18.755
'[03:01:41.758 07/11/2076]',-111.355,-35.165,66.422,45.324,-12.894,-71.111,64.469,-14.066,98.852,-127.766,-59.389,-60.171,-65.641,-43.761,-25.006,-13.675,-154.335,20.317,-65.641,110.965,21.490,75.018,-25.006
'[03:01:41.762 07/11/2076]',-116.044,-33.211,67.595,46.496,-10.549,-72.674,54.310,-5.079,73.455,-128.547,-30.476,-82.051,-42.589,-75.018,-29.695,-19.927,-157.460,18.364,-66.813,116.435,42.589,51.575,-29.695
'[03:01:41.766 07/11/2076]',-124.249,-30.867,60.562,54.701,-11.331,-77.363,52.357,-3.516,54.310,-125.421,-44.933,-63.297,-34.383,-119.560,-17.973,-6.642,-166.838,18.755,-59.780,104.322,55.092,24.615,-17.973
'[03:01:41.770 07/11/2076]',-133.626,-33.993,53.138,53.919,-13.284,-85.177,46.496,-7.814,25.397,-112.527,-66.813,-50.012,-92.601,-92.601,-15.629,-2.735,-178.168,14.847,-52.357,93.382,50.403,28.523,-15.629
'[03:01:41.773 07/11/2076]',-135.189,-37.509,47.277,49.231,-16.020,-89.866,28.523,1.563,-5.861,-117.607,-39.463,-67.595,-84.005,-117.607,-22.662,-6.252,-182.076,3.516,-46.496,101.978,50.012,10.549,-22.662
'[03:01:41.777 07/11/2076]',-133.236,-38.681,38.291,43.370,-17.192,-91.038,23.053,-4.298,-22.662,-108.230,-34.383,-77.363,-89.475,-123.468,-25.397,-3.516,-184.811,3.516,-37.509,104.713,43.761,4.689,-25.397
'[03:01:41.781 07/11/2076]',-132.845,-45.714,27.350,44.542,-23.443,-93.382,14.457,-2.735,-43.370,-100.024,-51.184,-62.125,-130.891,-65.250,-61.734,0.391,-182.857,-3.126,-26.569,103.932,46.886,22.271,-61.734
'[03:01:41.785 07/11/2076]',-136.361,-47.277,18.755,43.761,-30.476,-94.945,7.814,-2.344,-62.515,-111.355,-44.933,-51.966,-80.879,-114.872,-76.581,1.563,-176.996,-6.252,-17.973,96.508,73.455,6.642,-76.581
'[03:01:41.789 07/11/2076]',-135.189,-47.277,14.066,40.635,-33.602,-96.899,26.960,-22.662,-50.794,-108.230,-45.714,-48.449,-74.628,-166.447,-27.350,14.066,-165.665,5.079,-13.284,94.554,65.641,-33.211,-27.350
'[03:01:41.793 07/11/2076]',-132.845,-46.886,7.814,32.821,-36.337,-96.899,32.821,-37.509,-46.105,-99.243,-74.237,-24.225,-95.726,-101.587,-70.330,22.271,-157.070,10.940,-7.033,101.587,60.171,-0.781,-70.330
'[03:01:41.797 07/11/2076]',-134.017,-46.105,2.735,23.053,-44.151,-94.945,23.443,-37.118,-67.985,-108.230,-69.939,-14.457,-130.110,-127.766,-30.867,26.960,-155.116,6.642,-1.954,95.726,56.264,-50.403,-30.867
'[03:01:41.801 07/11/2076]',-122.295,-44.151,-1.563,2.735,-41.416,-87.131,4.298,-41.026,-78.535,-92.210,-75.409,-20.317,-112.137,-117.607,-65.641,28.523,-151.990,-1.172,2.344,85.568,55.092,-29.304,-65.641
'[03:01:41.805 07/11/2076]',-117.216,-44.151,-7.814,-5.470,-45.324,-82.442,-5.079,-41.807,-83.614,-79.707,-99.634,-4.689,-129.328,-95.726,-76.972,34.774,-149.255,-3.126,8.596,67.204,71.893,-38.291,-76.972
'[03:01:41.809 07/11/2076]',-110.183,-46.105,-7.814,-12.503,-50.794,-76.190,-20.317,-27.741,-102.759,-81.661,-93.382,-3.516,-95.336,-132.454,-94.164,40.635,-143.394,-10.549,8.596,53.138,73.065,-34.383,-94.164
'[03:01:41.813 07/11/2076]',-103.150,-51.575,-8.987,-6.252,-52.357,-73.455,-17.582,-25.006,-100.024,-80.098,-85.568,-8.205,-60.171,-195.360,-58.217,38.681,-137.143,-3.126,9.768,50.012,65.250,-55.482,-58.217
'[03:01:41.816 07/11/2076]',-95.726,-47.277,-7.033,-10.159,-52.747,-68.376,-19.145,-19.145,-100.806,-91.819,-86.349,8.205,-50.794,-179.731,-76.190,35.556,-136.361,5.470,7.814,42.979,66.422,-39.072,-76.190
'[03:01:41.820 07/11/2076]',-95.336,-44.151,-7.424,-8.596,-52.357,-65.250,-13.675,-23.834,-100.806,-94.164,-97.680,26.569,-113.700,-122.686,-69.158,38.291,-139.096,13.284,8.205,46.105,41.026,-21.490,-69.158
'[03:01:41.824 07/11/2076]',-86.349,-44.151,-5.861,-6.642,-50.012,-61.734,-21.490,-8.987,-103.541,-100.024,-72.674,11.722,-66.813,-148.864,-82.442,32.039,-128.938,1.954,6.642,39.853,49.621,-17.582,-82.442
'[03:01:41.828 07/11/2076]',-75.800,-43.761,-6.642,-5.470,-45.714,-57.045,-28.523,-0.391,-101.197,-101.197,-53.919,-1.563,-80.879,-98.852,-107.057,27.350,-120.342,-7.033,7.424,24.225,71.111,-6.642,-107.057
'[03:01:41.832 07/11/2076]',-78.926,-41.807,-10.159,6.642,-46.886,-54.310,-8.987,-12.503,-74.628,-83.614,-90.256,20.317,-92.210,-119.951,-48.059,31.648,-112.918,4.298,10.940,51.184,26.569,-26.569,-48.059
'[03:01:41.836 07/11/2076]',-74.237,-36.728,-12.112,6.252,-44.933,-49.621,-14.457,-6.252,-70.330,-89.866,-84.396,25.006,-34.383,-174.261,-29.695,17.973,-102.759,0.781,12.894,47.668,39.463,-48.840,-29.695
'[03:01:41.840 07/11/2076]',-71.111,-36.337,-14.066,10.940,-46.496,-46.496,-10.940,-5.079,-64.860,-96.508,-58.999,8.987,-69.158,-149.646,-1.954,9.768,-96.117,2.735,14.847,46.496,55.482,-82.833,-1.954
'[03:01:41.844 07/11/2076]',-66.032,-33.602,-14.457,6.252,-45.714,-42.979,-8.987,-8.596,-68.376,-103.932,-38.681,0.000,-63.687,-128.547,-21.099,3.516,-89.475,5.470,15.238,42.198,66.422,-64.078,-21.099
'[03:01:41.848 07/11/2076]',-64.469,-35.556,-14.847,12.503,-49.621,-42.198,-12.894,2.735,-77.753,-113.700,-28.913,4.298,-42.198,-137.143,-33.602,-2.735,-80.879,-0.391,15.629,34.774,85.177,-64.078,-33.602
'[03:01:41.852 07/11/2076]',-66.813,-41.416,-17.582,23.443,-56.264,-47.668,0.000,2.735,-73.065,-118.388,-32.430,17.192,-31.258,-116.044,-56.654,-1.954,-71.893,0.391,18.364,42.198,74.237,-32.430,-56.654
'[03:01:41.855 07/11/2076]',-68.767,-34.774,-17.973,26.178,-58.608,-45.714,0.391,8.596,-75.800,-122.686,-9.768,3.907,-42.589,-75.409,-81.270,-4.298,-63.297,-0.781,18.755,37.509,85.177,-15.629,-81.270
'[03:01:41.859 07/11/2076]',-67.595,-32.039,-18.364,33.602,-58.608,-39.072,-9.768,24.225,-68.376,-121.905,-4.689,-3.516,-8.987,-133.626,-41.026,-14.847,-57.436,-5.079,19.145,30.085,99.634,-58.217,-41.026
'[03:01:41.863 07/11/2076]',-63.687,-29.695,-21.490,37.118,-59.389,-32.430,-30.867,45.324,-67.985,-126.203,13.284,-17.582,-28.913,-126.984,-26.178,-16.801,-55.482,-16.801,22.271,8.987,122.686,-94.554,-26.178
'[03:01:41.867 07/11/2076]',-59.780,-20.708,-24.615,32.821,-57.045,-25.788,-32.430,43.761,-87.131,-124.249,32.039,-22.662,-53.529,-128.547,-0.781,-18.755,-59.389,-11.722,25.397,-0.391,124.640,-119.170,-0.781
'[03:01:41.871 07/11/2076]',-57.827,-16.801,-25.006,30.085,-56.654,-18.364,-37.118,43.370,-87.521,-116.435,32.039,-17.192,-29.304,-116.044,-20.317,-23.053,-56.264,-5.470,25.788,-5.861,129.328,-99.243,-20.317
'[03:01:41.875 07/11/2076]',-52.747,-21.099,-30.867,37.900,-58.608,-16.410,-47.277,56.264,-94.164,-135.971,50.794,-15.629,-18.755,-148.864,-13.284,-12.894,-49.231,-14.847,31.648,-18.755,135.189,-122.295,-13.284
'[03:01:41.879 07/11/2076]',-47.668,-19.145,-31.648,37.118,-55.092,-8.987,-43.370,46.496,-87.912,-132.063,62.515,-20.317,-42.198,-127.766,-7.424,-0.781,-38.291,-10.940,32.430,-17.192,109.402,-114.872,-7.424
'[03:01:41.883 07/11/2076]',-48.840,-12.894,-30.476,33.993,-53.138,0.000,-50.012,44.542,-101.197,-114.090,59.389,-3.516,11.331,-126.593,-53.919,9.768,-30.867,-6.642,31.258,-14.847,104.322,-73.846,-53.919
'[03:01:41.887 07/11/2076]',-51.575,-8.987,-37.509,35.165,-51.575,5.079,-61.343,44.542,-92.991,-116.435,32.430,13.284,-23.053,-122.295,-43.370,25.006,-24.225,-20.708,38.291,-26.178,99.634,-94.945,-43.370
'[03:01:41.891 07/11/2076]',-40.244,-6.252,-35.556,28.132,-41.416,11.722,-50.403,25.397,-84.786,-83.614,33.602,10.159,-73.846,-123.858,25.397,46.496,-10.549,-11.331,36.337,-12.894,65.641,-151.990,25.397
'[03:01:41.895 07/11/2076]',-32.039,-0.391,-32.430,18.755,-34.774,17.973,-36.337,5.861,-105.885,-47.277,56.654,8.596,1.954,-188.718,40.244,57.436,0.781,3.126,33.211,-6.252,55.092,-165.275,40.244
'[03:01:41.898 07/11/2076]',-27.741,5.861,-38.291,19.145,-27.741,23.834,-41.807,4.689,-86.349,-58.999,36.728,25.788,-61.734,-112.527,27.350,63.687,1.954,3.126,39.072,-11.722,22.662,-126.203,27.350
'[03:01:41.902 07/11/2076]',-15.629,17.973,-40.635,10.940,-16.020,31.258,-45.714,3.516,-74.628,-59.780,29.304,42.979,-84.396,-80.879,29.695,73.455,4.689,7.033,41.416,-18.755,12.894,-128.156,29.695
'[03:01:41.906 07/11/2076]',-5.861,27.741,-37.900,-0.391,-7.814,37.118,-32.039,-13.675,-84.396,-39.463,51.966,48.059,-33.211,-77.363,5.861,81.270,8.987,33.602,38.681,-3.516,-21.490,-78.535,5.861
'[03:01:41.910 07/11/2076]',-4.689,32.430,-40.244,-0.781,-6.642,39.853,-16.801,-28.913,-105.885,-16.020,58.999,51.575,-3.516,-68.376,-17.582,78.144,12.894,44.151,41.026,-7.033,-8.596,-58.999,-17.582
'[03:01:41.914 07/11/2076]',5.470,39.072,-45.324,-6.252,-1.563,40.244,-8.596,-35.946,-78.535,-13.284,23.834,84.005,-47.668,-23.834,-10.940,98.852,12.503,67.985,46.105,0.000,-47.668,-45.714,-10.940
'[03:01:41.918 07/11/2076]',10.549,39.853,-43.370,-11.331,-2.735,39.463,10.159,-52.357,-90.256,25.788,27.741,87.131,-14.457,-65.641,16.801,114.090,18.755,97.289,44.151,22.662,-79.707,-62.125,16.801
'[03:01:41.922 07/11/2076]',16.801,49.621,-41.416,-16.801,1.954,46.886,21.099,-62.906,-93.773,61.343,30.085,77.753,-22.662,-26.960,9.768,115.263,24.615,116.435,42.198,25.788,-94.164,-39.463,9.768
'[03:01:41.926 07/11/2076]',28.132,55.873,-41.807,-13.675,13.675,55.092,12.112,-53.529,-62.125,42.198,26.178,73.065,-78.535,28.523,8.596,120.733,26.569,108.620,42.589,18.755,-98.852,-33.602,8.596
'[03:01:41.930 07/11/2076]',44.542,64.469,-36.728,-19.927,28.523,62.906,18.364,-58.608,-60.562,60.952,48.449,60.562,-49.621,51.575,-8.596,116.044,36.337,114.872,37.509,18.364,-88.303,-20.317,-8.596
'[03:01:41.934 07/11/2076]',48.059,75.018,-33.211,-25.397,34.383,70.330,27.350,-68.767,-73.846,76.190,59.780,61.734,-7.424,67.595,-38.681,103.150,39.463,127.375,33.993,25.788,-84.396,18.364,-38.681
'[03:01:41.938 07/11/2076]',47.668,84.786,-33.993,-29.304,35.556,72.283,39.463,-78.926,-46.886,52.747,42.589,78.535,-37.118,62.906,-5.079,106.667,35.165,140.659,34.774,10.159,-96.117,13.675,-5.079
'[03:01:41.941 07/11/2076]',63.297,92.991,-30.867,-36.728,41.807,75.800,45.324,-76.190,-43.370,73.846,44.151,73.455,13.675,50.403,-23.053,106.667,39.463,153.553,31.648,23.443,-107.839,25.397,-23.053
'[03:01:41.945 07/11/2076]',71.111,98.071,-29.695,-39.853,39.853,80.098,62.125,-84.005,-60.952,99.243,60.171,68.376,87.912,-48.840,21.099,107.057,41.026,180.513,30.476,29.695,-104.322,-21.880,21.099
'[03:01:41.949 07/11/2076]',72.283,107.448,-31.648,-46.496,34.383,86.740,73.065,-94.164,-53.138,85.177,51.575,83.614,53.529,35.556,-25.006,103.150,32.430,198.877,32.430,24.225,-102.369,31.258,-25.006
'[03:01:41.953 07/11/2076]',75.409,110.574,-35.946,-44.542,27.350,88.694,73.846,-85.958,-70.330,94.164,45.324,95.336,112.918,4.689,-47.668,94.164,28.913,201.612,36.728,5.861,-78.535,46.886,-47.668
'[03:01:41.957 07/11/2076]',73.455,114.872,-39.853,-45.324,15.238,91.819,72.674,-78.535,-83.223,89.475,64.078,77.753,110.183,-3.907,-46.105,88.303,30.867,197.314,40.635,12.894,-62.515,13.675,-46.105
'[03:01:41.961 07/11/2076]',74.628,121.123,-33.602,-60.171,10.549,101.587,70.330,-82.442,-58.217,48.840,92.601,58.999,37.900,104.713,-75.018,73.455,32.821,201.612,34.383,1.954,-50.794,52.747,-75.018
'[03:01:41.965 07/11/2076]',71.893,120.342,-40.635,-50.012,1.172,102.369,71.111,-74.628,-54.310,64.860,59.780,65.250,30.085,52.357,-31.648,84.005,34.383,193.407,41.416,0.391,-55.092,0.781,-31.648
'[03:01:41.969 07/11/2076]',75.018,126.203,-39.463,-58.999,0.391,107.057,75.409,-80.879,-47.277,67.595,54.310,67.595,41.026,46.886,-24.615,77.363,42.979,193.407,40.244,4.298,-38.291,-23.053,-24.615
'[03:01:41.973 07/11/2076]',78.535,129.719,-39.463,-58.999,-2.735,111.355,105.885,-104.322,-60.171,84.786,85.177,68.767,78.144,-7.033,28.913,77.753,57.436,218.803,40.244,9.768,-57.045,-40.244,28.913
'[03:01:41.977 07/11/2076]',80.098,130.110,-37.509,-53.138,-8.205,111.746,111.355,-94.945,-73.846,105.104,96.508,57.045,127.766,-26.960,7.814,74.628,70.720,214.505,38.291,15.238,-56.654,-23.834,7.814
'[03:01:41.980 07/11/2076]',79.707,130.891,-41.807,-46.496,-12.503,111.746,104.322,-81.270,-79.707,87.521,91.819,67.985,107.057,23.443,-29.695,66.032,74.237,203.565,42.589,6.642,-44.542,7.424,-29.695
'[03:01:41.984 07/11/2076]',82.442,130.110,-41.807,-44.151,-14.457,116.435,105.104,-80.488,-85.958,110.183,95.726,60.952,140.659,-12.503,-0.391,53.919,82.833,204.737,42.589,8.205,-48.059,-7.033,-0.391
'[03:01:41.988 07/11/2076]',84.005,131.282,-45.324,-39.853,-12.112,120.733,85.568,-65.641,-64.078,87.131,90.256,48.059,52.357,97.680,-30.085,41.416,82.833,187.546,46.105,-1.954,-30.867,14.066,-30.085
'[03:01:41.992 07/11/2076]',89.866,125.812,-49.231,-36.728,-8.987,119.170,65.641,-47.277,-68.767,75.800,92.991,44.933,75.018,113.309,-71.111,27.741,83.223,169.182,50.012,-21.490,25.397,12.112,-71.111
'[03:01:41.996 07/11/2076]',96.117,121.514,-47.668,-31.648,-5.079,119.560,78.535,-55.482,-70.330,98.852,112.918,38.291,157.070,-19.536,21.880,20.317,90.256,183.639,48.449,-9.768,1.563,-46.886,21.880
'[03:01:42.000 07/11/2076]',97.680,122.686,-44.151,-31.648,1.563,117.998,72.674,-49.231,-57.827,69.158,119.951,35.165,132.454,42.979,-22.271,12.503,87.131,181.294,44.933,-7.814,0.781,1.172,-22.271
'[03:01:42.004 07/11/2076]',93.773,119.951,-42.198,-26.569,5.079,114.090,81.270,-56.654,-55.482,87.131,96.117,48.449,157.070,-22.271,24.615,15.629,87.131,186.374,42.979,3.907,-22.271,-25.397,24.615
'[03:01:42.008 07/11/2076]',98.852,113.700,-36.337,-19.536,14.457,113.309,83.614,-55.482,-38.291,114.090,85.177,33.602,113.309,0.000,59.780,20.708,97.680,179.731,37.118,16.801,-53.529,-32.821,59.780
'[03:01:42.012 07/11/2076]',102.759,107.448,-31.258,-13.675,24.225,111.746,72.283,-43.761,-30.476,110.574,98.071,14.066,77.363,48.059,47.277,17.582,101.978,165.275,32.039,14.847,-34.383,-34.774,47.277
'[03:01:42.016 07/11/2076]',100.024,109.402,-30.476,-13.675,30.085,110.574,67.985,-44.151,-14.457,102.369,69.548,32.430,91.038,46.105,27.350,23.834,95.336,154.335,31.258,10.940,-52.747,-0.781,27.350
'[03:01:42.020 07/11/2076]',96.899,111.355,-25.788,-12.503,33.993,106.667,64.469,-36.728,-5.079,95.726,48.840,50.012,34.774,101.197,23.834,29.304,90.647,144.176,26.569,-7.424,-39.072,-2.735,23.834
'[03:01:42.023 07/11/2076]',96.117,112.918,-17.582,-19.536,34.774,106.276,44.933,-16.801,-8.596,72.674,73.846,33.211,105.495,47.668,-11.722,28.913,83.614,130.891,18.364,-9.768,-25.788,4.298,-11.722
'[03:01:42.027 07/11/2076]',91.038,111.746,-8.596,-18.755,34.774,103.541,46.105,-10.549,14.066,60.171,55.092,29.304,105.495,-11.331,20.317,43.370,71.111,126.593,9.377,-6.252,-60.171,-9.377,20.317
'[03:01:42.031 07/11/2076]',85.177,105.495,-5.079,-16.410,30.476,93.773,41.416,1.954,8.596,57.827,29.695,51.184,112.527,-18.364,-2.735,57.436,62.906,121.905,5.861,-11.331,-60.562,0.000,-2.735
'[03:01:42.035 07/11/2076]',81.270,100.415,-3.907,-17.582,25.397,84.005,39.463,8.205,-1.954,44.542,35.165,60.562,80.879,23.834,-25.397,58.608,55.482,120.342,4.689,-17.192,-40.244,-5.079,-25.397
'[03:01:42.039 07/11/2076]',73.455,94.164,1.172,-17.192,19.145,74.237,51.575,5.079,-12.503,42.589,51.184,60.952,110.965,-3.516,-28.132,63.297,50.403,127.766,-0.391,-10.549,-48.840,3.907,-28.132
'[03:01:42.043 07/11/2076]',61.343,86.349,1.954,-14.457,9.377,61.343,50.403,12.112,-28.913,19.145,49.231,76.581,67.595,19.927,-35.946,63.687,43.761,118.388,-1.172,-25.006,-17.192,-16.020,-35.946
'[03:01:42.047 07/11/2076]',54.310,84.786,5.079,-16.410,2.344,62.515,48.449,12.503,-41.416,23.053,69.939,75.800,46.886,0.391,21.099,57.827,44.933,125.812,-4.298,-20.708,-7.814,-77.363,21.099
'[03:01:42.051 07/11/2076]',45.324,82.442,11.331,-16.410,0.391,62.125,45.324,14.066,-18.364,17.582,51.184,66.813,58.217,-64.078,58.999,62.515,38.291,119.951,-10.549,-12.894,-53.919,-75.800,58.999
'[03:01:42.055 07/11/2076]',35.556,78.144,12.503,-16.020,-7.033,57.045,42.589,16.801,-32.430,30.085,31.258,72.674,62.906,-66.422,39.072,65.641,35.556,111.355,-11.722,-19.145,-59.389,-53.138,39.072
'[03:01:42.059 07/11/2076]',35.946,69.939,8.987,-12.112,-10.549,52.747,37.509,22.271,-24.615,27.350,42.589,64.860,-3.516,9.768,42.589,60.171,42.589,99.634,-8.205,-28.523,-51.966,-58.217,42.589
'[03:01:42.063 07/11/2076]',35.556,60.562,8.596,-6.252,-14.066,49.231,35.165,27.350,-45.324,33.602,60.562,51.184,41.416,-21.490,22.662,56.654,50.403,87.912,-7.814,-33.602,-47.668,-39.463,22.662
'[03:01:42.066 07/11/2076]',25.006,54.701,3.516,-5.470,-23.443,42.589,28.523,29.304,-62.906,39.853,57.045,57.436,5.470,22.662,10.159,51.966,51.575,80.879,-2.735,-37.900,-22.271,-46.886,10.159
'[03:01:42.070 07/11/2076]',17.973,53.138,-0.391,-3.516,-25.788,37.509,23.834,29.304,-51.966,30.867,44.933,65.641,-15.629,47.668,12.112,44.933,52.357,71.502,1.172,-39.853,-33.211,-30.867,12.112
'[03:01:42.074 07/11/2076]',18.755,47.668,-0.391,0.781,-26.960,35.556,24.225,32.430,-48.449,34.774,58.999,49.621,31.648,-23.834,39.463,46.886,57.436,64.860,1.172,-39.853,-39.072,-53.529,39.463
'[03:01:42.078 07/11/2076]',16.020,41.807,0.391,1.172,-28.523,29.304,26.960,31.258,-51.575,31.258,69.548,34.774,57.827,-37.509,19.927,42.979,54.701,53.919,0.391,-49.231,-32.039,-37.900,19.927
'[03:01:42.082 07/11/2076]',13.284,37.118,-1.563,3.516,-28.523,25.006,22.271,32.821,-47.277,21.490,60.562,48.840,14.457,7.424,19.536,42.198,50.012,48.449,2.344,-53.919,-38.291,-29.304,19.536
'[03:01:42.086 07/11/2076]',14.847,34.383,-5.470,8.596,-23.443,21.099,19.536,34.774,-44.542,31.258,59.780,52.747,21.099,16.410,19.536,41.026,51.184,43.761,6.252,-59.389,-32.821,-33.993,19.536
'[03:01:42.090 07/11/2076]',10.940,30.476,-5.861,8.205,-21.099,17.582,21.490,25.788,-34.774,31.648,64.078,35.556,-25.788,73.846,8.596,39.463,49.621,36.337,6.642,-59.389,-28.523,-25.788,8.596
'[03:01:42.094 07/11/2076]',8.596,26.178,-7.814,8.205,-19.145,11.331,22.662,19.927,-32.821,30.867,71.502,28.132,-45.324,84.786,19.927,37.118,45.324,32.430,8.596,-60.952,-14.847,-48.449,19.927
'[03:01:42.098 07/11/2076]',5.079,22.662,-11.331,14.457,-18.364,2.344,23.053,23.053,-27.741,53.529,44.151,44.542,-17.192,32.821,56.264,41.416,42.198,41.026,12.112,-49.231,-52.747,-50.403,56.264
'[03:01:42.102 07/11/2076]',0.391,17.192,-12.112,16.020,-18.755,-6.642,24.615,23.053,-29.695,52.357,29.304,69.158,-7.033,38.681,45.714,42.198,36.337,57.045,12.894,-34.383,-79.707,-14.066,45.714
'[03:01:42.105 07/11/2076]',-2.344,10.549,-15.238,20.708,-20.708,-16.801,25.006,25.397,-50.403,42.979,52.747,56.264,24.615,-16.801,56.654,36.337,28.132,54.310,16.020,-40.244,-66.813,-31.648,56.654
'[03:01:42.109 07/11/2076]',-1.563,8.205,-13.284,16.801,-17.192,-19.145,28.523,17.582,-51.575,53.529,58.999,53.529,18.364,30.867,35.165,28.523,27.350,64.469,14.066,-35.165,-75.800,7.814,35.165
'[03:01:42.113 07/11/2076]',2.344,2.735,-14.847,25.006,-10.159,-19.536,25.788,19.536,-53.138,56.654,68.376,39.072,32.430,3.126,51.966,22.271,22.662,58.217,15.629,-39.072,-71.502,-6.642,51.966
'[03:01:42.117 07/11/2076]',2.344,3.907,-9.768,18.755,-3.907,-19.145,29.304,8.596,-24.615,46.496,71.111,25.788,-55.873,129.328,26.178,19.536,15.238,62.515,10.549,-28.523,-94.945,43.761,26.178
'[03:01:42.121 07/11/2076]',-1.954,3.126,-7.033,21.490,-3.126,-24.225,31.648,10.549,-32.821,44.542,71.502,30.476,-21.490,59.389,57.045,17.973,8.987,60.562,7.814,-26.960,-99.243,17.192,57.045
'[03:01:42.125 07/11/2076]',0.000,-1.172,-3.516,31.258,0.391,-25.006,37.118,12.112,-12.503,66.422,58.217,28.132,-24.225,28.132,109.011,26.569,12.503,69.548,4.298,-5.470,-128.156,-11.331,109.011
'[03:01:42.129 07/11/2076]',4.298,-6.642,1.954,33.211,4.298,-23.443,41.807,8.205,-5.079,57.827,79.707,13.284,-9.377,47.277,81.661,25.006,17.192,66.032,-1.172,-1.954,-123.468,13.675,81.661
'[03:01:42.133 07/11/2076]',-0.391,-7.033,3.126,34.383,4.298,-21.490,42.979,3.516,-19.145,50.403,82.442,18.364,34.774,-5.861,82.051,19.927,12.112,61.343,-2.344,-1.172,-98.462,-5.079,82.051
'[03:01:42.137 07/11/2076]',-0.391,-3.516,4.689,40.635,8.205,-14.847,44.151,2.344,0.391,59.780,60.171,33.993,9.768,4.298,117.607,21.880,14.457,73.065,-3.907,16.020,-138.315,3.516,117.607
'[03:01:42.141 07/11/2076]',8.987,-3.516,5.861,46.496,15.629,-11.331,48.840,4.298,3.516,78.535,68.767,13.675,20.708,29.304,91.038,22.271,22.271,62.125,-5.079,21.880,-139.096,24.615,91.038
'[03:01:42.145 07/11/2076]',11.722,-0.781,13.675,41.026,19.927,-8.987,54.310,0.781,27.741,60.171,75.409,-5.470,-2.735,59.389,80.879,20.317,21.099,55.482,-12.894,20.708,-131.282,28.523,80.879
'[03:01:42.148 07/11/2076]',12.112,1.563,12.112,43.761,23.834,-10.549,50.403,6.252,52.747,57.045,44.151,7.814,-6.642,65.250,80.098,22.662,13.284,54.701,-11.331,25.397,-157.070,48.840,80.098
'[03:01:42.152 07/11/2076]',12.112,-2.344,8.205,48.059,23.834,-16.020,45.714,13.284,42.979,67.985,30.476,21.490,22.662,16.410,97.289,25.397,10.159,56.264,-7.424,32.039,-143.785,12.503,97.289
'[03:01:42.156 07/11/2076]',14.847,0.000,12.503,39.072,28.913,-17.192,48.840,6.642,66.032,54.310,47.668,13.284,-9.377,48.449,115.653,26.178,5.861,69.548,-11.722,38.291,-149.646,5.470,115.653
'[03:01:42.160 07/11/2076]',14.847,0.781,8.987,33.602,30.867,-21.880,48.449,1.563,64.860,38.291,50.794,10.159,33.993,65.250,37.118,26.569,-1.954,68.376,-8.205,32.821,-125.031,62.515,37.118
'[03:01:42.164 07/11/2076]',14.457,0.391,0.391,44.542,28.913,-26.178,45.324,10.940,54.310,50.794,29.304,39.463,80.488,-1.172,51.184,42.589,-3.516,78.926,0.391,43.370,-128.547,38.291,51.184
'[03:01:42.168 07/11/2076]',14.847,1.954,1.172,35.556,30.867,-28.132,51.966,-0.781,81.661,15.629,40.635,23.834,15.238,134.408,-40.244,52.747,-5.861,70.330,-0.391,28.132,-108.230,108.230,-40.244
'[03:01:42.172 07/11/2076]',11.331,0.391,-4.689,35.165,32.039,-30.867,47.277,-6.642,87.912,-7.033,33.602,7.424,68.767,106.667,-110.183,55.092,-14.066,40.244,5.470,18.364,-62.906,114.872,-110.183
'[03:01:42.176 07/11/2076]',7.033,-12.112,-7.033,52.357,31.258,-32.039,37.900,1.172,93.773,-8.205,22.271,21.880,10.549,-30.085,69.158,78.926,-18.364,47.277,7.814,48.840,-114.481,-33.211,69.158
'[03:01:42.180 07/11/2076]',15.629,-14.847,-1.954,39.853,42.589,-26.960,37.900,-14.847,95.336,-6.252,39.072,5.861,4.298,21.099,27.350,79.707,-15.629,37.900,2.735,44.542,-92.991,-12.503,27.350
'[03:01:42.184 07/11/2076]',12.503,-8.596,-17.192,46.886,45.324,-29.304,29.304,-12.503,81.661,-3.516,37.118,9.377,32.430,-28.132,42.979,76.972,-22.271,29.304,17.973,41.807,-104.713,-17.973,42.979
'[03:01:42.188 07/11/2076]',12.894,-2.735,-27.741,42.198,51.184,-31.258,23.053,-19.536,89.475,-5.470,12.503,22.662,7.814,-16.410,41.026,85.568,-28.132,26.569,28.523,26.569,-107.839,-7.424,41.026
'[03:01:42.191 07/11/2076]',14.847,-16.801,-12.503,32.430,54.701,-34.383,23.053,-25.788,85.568,-15.238,19.145,8.205,8.987,48.840,-46.886,85.177,-25.006,4.298,13.284,30.085,-80.879,46.105,-46.886
'[03:01:42.195 07/11/2076]',12.503,-25.788,-8.596,35.165,53.529,-37.509,19.536,-23.053,76.190,-23.443,32.821,-9.377,25.006,37.118,-71.111,84.005,-23.443,-19.536,9.377,20.708,-45.324,35.946,-71.111
'[03:01:42.199 07/11/2076]',8.205,-28.523,-6.642,31.258,55.873,-35.946,13.284,-27.741,84.005,-26.178,4.689,6.252,1.563,-19.145,-7.814,92.991,-25.006,-23.053,7.424,32.821,-78.144,-4.298,-7.814
'[03:01:42.203 07/11/2076]',5.079,-48.449,32.039,16.020,60.562,-32.039,12.894,-37.118,94.164,-41.807,-5.079,18.364,-32.821,33.993,-27.741,91.038,-22.271,-29.695,-31.258,55.482,-75.409,21.490,-27.741
'[03:01:42.207 07/11/2076]',8.205,-26.178,-1.563,26.569,62.515,-29.695,12.503,-38.291,86.349,-32.821,10.549,-3.907,-42.589,73.455,-54.310,82.442,-12.894,-51.184,2.344,30.085,-54.310,24.615,-54.310
'[03:01:42.211 07/11/2076]',10.940,-12.112,-17.582,34.383,68.376,-25.397,12.894,-39.853,71.111,-31.258,32.039,-17.192,-7.424,7.424,-16.410,70.330,-8.987,-53.919,18.364,11.722,-43.370,-4.298,-16.410
'[03:01:42.215 07/11/2076]',14.847,-6.252,-7.814,32.430,78.144,-20.708,12.894,-37.900,81.270,-16.410,10.940,-7.424,-2.735,48.840,-41.807,62.906,-1.954,-54.701,8.596,21.880,-31.258,11.722,-41.807
'[03:01:42.219 07/11/2076]',14.847,-4.689,-4.689,38.291,81.661,-21.880,15.629,-32.039,72.674,-1.172,5.470,-6.252,11.722,83.223,-82.051,57.436,5.079,-58.608,5.470,33.602,-26.569,44.151,-82.051
'[03:01:42.223 07/11/2076]',12.112,-15.629,14.066,42.979,82.833,-23.443,18.755,-24.225,58.608,21.490,19.536,-10.549,49.231,-3.907,-8.205,52.357,12.894,-48.059,-13.284,51.184,-40.244,0.000,-8.205
'[03:01:42.227 07/11/2076]',10.549,-28.132,34.383,41.807,87.912,-28.913,20.708,-19.927,97.289,-9.768,19.536,-17.582,40.635,12.894,-12.894,46.496,12.503,-52.747,-33.602,63.297,-53.529,31.258,-12.894
'[03:01:42.230 07/11/2076]',8.596,-41.807,46.886,42.589,90.256,-35.556,23.053,-20.708,103.150,-10.159,8.596,-16.801,-12.894,122.686,-63.687,38.291,15.238,-60.562,-46.105,66.422,-50.012,88.303,-63.687
'[03:01:42.234 07/11/2076]',1.954,-66.032,56.264,62.125,90.256,-42.589,15.629,-7.814,100.806,-1.563,15.238,-17.973,-38.291,57.436,43.370,32.430,14.066,-58.999,-55.482,86.740,-75.409,20.317,43.370
'[03:01:42.238 07/11/2076]',12.894,-26.960,16.801,51.575,107.839,-41.416,10.940,-22.662,108.620,14.457,9.377,-21.099,12.503,9.377,64.469,23.834,14.066,-54.701,-16.020,49.231,-70.720,6.252,64.469
'[03:01:42.242 07/11/2076]',17.582,-30.867,16.801,57.436,121.514,-43.370,7.814,-24.225,107.057,22.271,8.987,-24.615,-1.563,16.801,73.455,24.225,14.847,-61.343,-16.020,67.595,-101.197,15.629,73.455
'[03:01:42.246 07/11/2076]',23.834,-49.621,30.476,64.469,130.501,-42.979,4.689,-21.099,101.197,16.020,26.960,-39.072,27.350,14.847,45.714,16.410,16.020,-71.502,-29.695,73.455,-92.601,45.324,45.714
'[03:01:42.250 07/11/2076]',18.755,-47.277,24.615,66.422,131.673,-44.151,1.563,-24.615,121.514,-4.298,15.238,-37.118,-45.324,37.509,85.177,15.629,7.033,-74.628,-23.834,67.985,-99.634,21.880,85.177
'[03:01:42.254 07/11/2076]',17.192,-60.562,35.556,70.330,133.626,-44.542,1.172,-26.569,125.031,-19.536,12.894,-30.476,-56.654,73.846,64.469,4.298,4.689,-78.926,-34.774,68.767,-81.270,47.277,64.469
'[03:01:42.258 07/11/2076]',14.457,-100.415,86.740,74.628,132.063,-39.853,8.987,-23.834,107.448,3.516,25.397,-43.761,-0.781,51.966,40.635,0.781,12.503,-82.051,-85.958,115.263,-78.926,71.893,40.635
'[03:01:42.262 07/11/2076]',20.708,-61.734,28.523,84.786,129.719,-37.509,6.642,-25.397,87.521,11.331,48.840,-53.919,25.006,-4.689,79.707,-5.861,19.536,-87.131,-27.741,76.581,-64.078,13.284,79.707
'[03:01:42.266 07/11/2076]',19.536,-54.310,19.145,82.833,127.375,-32.039,4.689,-31.258,76.972,35.556,28.132,-33.211,66.422,-18.364,57.436,1.954,22.662,-80.488,-18.364,74.237,-45.714,15.629,57.436
'[03:01:42.270 07/11/2076]',16.410,-49.621,19.145,80.098,122.295,-28.523,9.377,-34.774,48.840,32.821,26.178,-25.397,148.474,-46.886,-13.675,-2.735,23.834,-90.256,-18.364,64.078,-34.383,78.926,-13.675
'[03:01:42.273 07/11/2076]',16.020,-50.012,7.424,84.396,112.137,-26.178,10.159,-35.946,65.641,5.470,35.556,-41.807,-15.629,18.364,59.389,2.344,23.443,-100.806,-6.642,74.628,-38.681,-22.662,59.389
'[03:01:42.277 07/11/2076]',19.145,-47.277,19.927,69.158,107.057,-16.801,20.708,-48.840,68.376,8.987,43.761,-49.231,-72.283,51.966,85.177,7.033,23.834,-84.786,-19.145,82.833,-41.807,-46.886,85.177
'[03:01:42.281 07/11/2076]',17.973,-46.496,29.695,70.720,100.806,-11.722,30.867,-46.105,57.827,-5.079,39.072,-35.165,2.735,-10.159,57.045,5.079,23.053,-81.661,-28.913,85.568,-53.138,-10.159,57.045
'[03:01:42.285 07/11/2076]',21.880,-42.198,29.304,71.502,93.382,-7.814,37.118,-40.244,44.933,-9.377,37.509,-24.225,-7.424,25.788,18.364,10.940,25.788,-78.926,-28.523,72.283,-34.774,3.907,18.364
'[03:01:42.289 07/11/2076]',20.317,-39.853,31.648,72.283,81.661,-7.033,45.714,-33.602,23.053,1.172,48.449,-25.397,42.979,-1.172,-7.033,12.894,30.476,-71.502,-30.867,65.250,-9.377,7.814,-7.033
'[03:01:42.293 07/11/2076]',17.973,-34.383,30.867,69.158,74.237,-6.252,48.449,-30.867,0.391,-9.377,50.403,-16.020,78.926,3.907,-77.363,18.755,30.476,-74.628,-30.085,50.794,20.708,40.635,-77.363
'[03:01:42.297 07/11/2076]',15.629,-37.900,28.913,69.158,62.125,-1.954,47.277,-30.085,-17.582,4.298,40.635,-13.284,78.926,-21.880,-62.125,19.145,32.039,-78.535,-28.132,48.840,26.960,14.457,-62.125
'[03:01:42.301 07/11/2076]',17.582,-42.589,42.979,49.621,55.873,8.596,50.012,-46.886,-10.159,4.689,46.105,-20.708,22.271,-24.615,-2.735,24.225,32.821,-71.502,-42.198,68.376,12.112,-48.059,-2.735
'[03:01:42.305 07/11/2076]',16.410,-13.675,4.298,48.059,51.184,16.801,50.012,-63.297,3.126,-0.781,30.085,-14.066,-33.993,-11.722,32.821,30.476,36.728,-71.111,-3.516,45.324,-7.033,-73.846,32.821
'[03:01:42.309 07/11/2076]',17.192,-19.145,2.344,50.403,45.324,23.053,53.529,-70.330,17.192,9.768,17.973,-17.582,0.781,-39.853,30.085,35.946,47.277,-75.409,-1.563,42.589,-21.490,-50.403,30.085
'[03:01:42.313 07/11/2076]',15.629,-26.569,10.940,48.449,37.118,26.960,58.999,-74.237,11.331,16.410,31.258,-28.913,36.728,-67.595,23.443,36.728,57.045,-82.051,-10.159,42.198,-2.735,-59.389,23.443
'[03:01:42.316 07/11/2076]',3.907,-33.993,17.973,55.873,27.741,26.178,59.780,-70.330,16.410,22.271,16.410,-23.443,-10.159,-33.211,42.198,33.602,55.873,-77.753,-17.192,63.687,-25.397,-50.794,42.198
'[03:01:42.320 07/11/2076]',-2.735,-35.165,23.443,50.012,23.053,28.132,59.780,-76.190,19.145,33.602,1.563,-13.675,3.907,-35.165,36.728,34.774,54.701,-69.548,-22.662,59.389,-36.728,-14.066,36.728
'[03:01:42.324 07/11/2076]',-0.781,-45.714,25.006,53.138,17.582,23.443,59.389,-69.548,6.642,53.529,17.973,-32.039,70.330,-100.415,43.761,32.039,57.827,-75.018,-24.225,80.488,-38.681,-35.946,43.761
'[03:01:42.328 07/11/2076]',0.391,-61.734,37.118,50.403,17.973,17.973,57.436,-67.985,32.039,33.211,28.913,-50.012,-47.668,-9.377,75.409,25.788,53.529,-72.283,-36.337,91.038,-45.714,-53.138,75.409
'[03:01:42.332 07/11/2076]',3.126,-28.523,-16.410,56.264,19.536,14.066,49.621,-69.158,47.668,22.662,11.331,-37.509,-17.582,12.894,24.615,23.443,48.059,-68.767,17.192,58.608,-65.250,12.503,24.615
'[03:01:42.336 07/11/2076]',0.391,-42.198,-5.079,58.217,14.066,9.768,46.105,-59.780,52.747,21.880,3.907,-36.728,-9.377,43.370,-6.252,15.238,43.370,-74.237,5.861,73.846,-63.687,41.416,-6.252
'[03:01:42.340 07/11/2076]',-5.470,-51.966,1.563,70.330,6.252,5.861,48.059,-46.886,58.217,9.377,16.801,-54.310,-10.940,16.020,26.569,-1.172,37.900,-71.111,-0.781,87.912,-53.919,14.457,26.569
'[03:01:42.344 07/11/2076]',-8.987,-48.059,4.298,66.422,0.781,7.033,53.138,-47.668,48.840,28.523,24.615,-60.562,66.032,-3.126,-12.503,-7.033,38.291,-53.919,-3.516,77.363,-24.225,50.403,-12.503
'[03:01:42.348 07/11/2076]',-14.847,-59.389,13.675,78.926,-8.987,3.126,55.092,-30.867,74.628,14.457,4.689,-49.621,-19.536,37.118,37.509,-10.159,35.165,-47.277,-12.894,90.256,-15.238,1.954,37.509
'[03:01:42.352 07/11/2076]',-19.536,-63.687,25.397,85.568,-12.112,0.391,60.952,-20.317,75.409,17.192,-7.424,-33.211,37.900,-12.112,44.933,-17.973,37.900,-28.523,-24.615,100.806,3.126,0.000,44.933
'[03:01:42.355 07/11/2076]',-17.192,-55.092,22.662,80.488,-11.722,0.391,69.939,-26.178,76.972,25.006,2.344,-46.886,29.304,43.370,12.503,-26.178,41.416,-21.099,-21.880,98.071,21.880,21.099,12.503
'[03:01:42.359 07/11/2076]',-10.549,-46.886,10.159,87.521,-6.642,2.735,69.158,-24.225,111.355,-5.079,4.689,-57.436,25.788,62.125,-4.298,-30.085,37.118,-28.132,-9.377,101.978,4.298,39.853,-4.298
'[03:01:42.363 07/11/2076]',-5.861,-50.794,16.410,87.521,-3.126,8.596,69.158,-26.960,99.243,7.814,17.973,-64.860,75.018,46.496,-21.880,-38.681,35.556,-21.880,-15.629,115.653,19.536,46.886,-21.880
'[03:01:42.367 07/11/2076]',-4.689,-58.217,15.238,86.349,-3.907,5.861,64.078,-27.350,96.508,-1.954,23.834,-69.548,77.363,41.807,-30.085,-40.635,25.397,-26.178,-14.457,117.216,34.383,35.556,-30.085
'[03:01:42.371 07/11/2076]',-8.205,-52.357,2.735,84.786,-4.689,4.689,56.654,-30.476,113.700,15.629,-3.516,-48.449,14.457,77.753,15.629,-30.476,19.145,-3.516,-1.954,104.322,35.556,7.033,15.629
'[03:01:42.375 07/11/2076]',-7.033,-56.654,-7.424,84.396,-6.642,0.000,51.966,-31.648,85.958,8.205,1.954,-45.324,33.211,94.945,-41.026,-35.946,16.410,-14.457,8.205,113.309,54.310,27.741,-41.026
'[03:01:42.379 07/11/2076]',-8.205,-70.720,-1.563,82.051,-8.596,-2.344,46.105,-32.430,77.363,12.503,-0.391,-47.277,80.098,-3.516,-1.954,-31.648,17.582,-14.847,2.344,123.468,60.562,-19.927,-1.954
'[03:01:42.383 07/11/2076]',-7.033,-35.946,-45.714,78.144,-4.689,1.563,35.946,-44.151,80.488,13.284,-16.020,-35.946,76.972,41.807,-44.933,-31.258,14.847,-11.722,46.496,95.336,54.310,23.443,-44.933
'[03:01:42.387 07/11/2076]',-7.814,-41.807,-38.681,68.767,-0.391,3.907,28.913,-52.357,75.409,-4.689,-21.490,-26.569,114.872,46.886,-99.243,-39.853,10.940,-23.443,39.463,90.256,84.786,53.919,-99.243
'[03:01:42.391 07/11/2076]',-3.516,-50.012,-34.383,69.158,3.126,4.298,24.615,-52.357,74.628,12.894,-13.675,-33.602,82.833,45.714,-60.952,-27.350,16.020,-16.801,35.165,103.932,69.939,22.271,-60.952
'[03:01:42.395 07/11/2076]',-0.781,-53.138,-33.602,57.827,6.642,3.516,19.927,-62.125,66.422,6.252,10.159,-47.668,110.183,14.457,-61.734,-26.569,14.847,-21.490,34.383,89.475,101.978,-5.470,-61.734
'[03:01:42.398 07/11/2076]',-1.172,-62.515,-24.225,43.370,8.987,4.298,11.331,-70.720,78.926,16.801,-22.662,-26.569,57.045,75.409,-67.595,-17.582,10.549,-16.801,25.006,104.713,66.422,21.880,-67.595
'[03:01:42.402 07/11/2076]',-2.735,-65.250,-32.821,40.635,7.424,0.391,2.344,-71.893,60.562,10.940,-32.821,-5.861,76.190,30.867,-64.078,-8.596,8.205,-25.006,33.602,97.289,64.078,8.205,-64.078
'[03:01:42.406 07/11/2076]',-0.781,-53.529,-39.463,21.880,7.424,5.861,1.563,-87.912,44.933,18.755,-16.020,-10.549,100.806,-7.033,-48.059,-6.252,12.112,-25.006,40.244,92.991,57.045,-16.801,-48.059
'[03:01:42.410 07/11/2076]',0.000,-39.853,-35.165,8.596,11.722,12.894,4.298,-96.899,48.449,30.867,-19.536,-1.172,101.587,29.304,-66.422,-3.516,15.629,-14.457,35.946,78.144,57.045,13.284,-66.422
'[03:01:42.414 07/11/2076]',-4.298,-30.476,-40.635,10.940,10.159,11.331,3.126,-91.038,34.774,28.913,-37.900,33.993,116.435,2.735,-61.343,4.689,15.629,-5.079,41.416,69.548,49.621,11.722,-61.343
'[03:01:42.418 07/11/2076]',-6.642,-34.774,-21.099,5.861,9.377,7.424,12.503,-88.303,28.913,26.960,-23.053,27.350,135.580,-36.337,-39.853,3.126,18.755,-6.642,21.880,57.436,71.111,-18.364,-39.853
'[03:01:42.422 07/11/2076]',-11.722,-37.118,-2.344,-5.470,8.596,7.424,17.582,-93.773,42.198,11.331,-14.457,25.788,84.396,5.470,-28.132,3.907,16.801,4.298,3.126,55.482,69.158,-18.364,-28.132
'[03:01:42.426 07/11/2076]',-12.503,-40.635,7.033,-6.252,9.377,8.205,17.192,-89.866,35.556,-7.033,-12.112,22.271,91.429,-1.954,-51.184,1.563,12.503,-14.847,-6.252,54.310,47.277,9.768,-51.184
'[03:01:42.430 07/11/2076]',-17.582,-51.575,17.192,1.172,5.079,5.470,17.192,-80.488,26.569,-21.490,0.000,12.112,42.589,13.675,-42.589,4.689,11.331,-32.821,-16.410,48.059,46.886,-6.252,-42.589
'[03:01:42.434 07/11/2076]',-23.053,-45.324,23.443,-5.861,0.781,13.284,20.317,-87.912,26.178,-6.642,-7.814,26.178,-6.642,33.211,-1.563,14.457,8.205,-9.768,-22.662,72.674,-1.563,-17.582,-1.563
'[03:01:42.438 07/11/2076]',-39.463,-46.105,25.006,-2.344,-8.987,9.377,20.317,-85.177,17.582,-3.516,-33.602,46.105,-27.741,12.894,17.973,23.834,1.954,-12.112,-24.225,68.376,-7.814,-36.337,17.973
'[03:01:42.441 07/11/2076]',-46.886,-53.529,35.556,6.642,-14.847,5.861,27.350,-77.363,11.722,2.735,-23.053,48.059,-20.708,-32.430,61.734,32.039,7.424,-5.470,-34.774,81.270,-29.695,-65.641,61.734
'[03:01:42.445 07/11/2076]',-48.449,-41.807,32.430,0.391,-17.192,2.344,36.728,-80.879,-3.516,15.238,0.391,32.430,-3.126,-21.490,37.900,32.039,9.768,-2.735,-31.648,51.184,-10.549,-51.575,37.900
'[03:01:42.449 07/11/2076]',-61.734,-43.761,43.761,2.735,-21.490,-4.298,39.072,-72.283,-16.020,18.364,-7.424,46.105,16.020,-63.687,50.403,37.509,1.563,0.781,-42.979,66.422,-42.589,-44.933,50.403
'[03:01:42.453 07/11/2076]',-67.595,-35.946,55.873,5.861,-14.457,-9.377,44.933,-63.297,-4.298,7.814,-20.317,49.621,12.894,-16.410,-3.516,41.026,-3.516,-7.814,-55.092,49.231,-51.966,24.225,-3.516
'[03:01:42.457 07/11/2076]',-66.422,-35.556,62.906,14.847,-10.940,-13.675,51.184,-50.403,-19.927,22.662,-1.563,27.741,16.020,-23.834,-5.470,43.370,-3.907,-12.894,-62.125,57.827,-43.761,1.172,-5.470
'[03:01:42.461 07/11/2076]',-75.018,-40.635,75.800,20.317,-14.066,-17.973,56.264,-43.370,-0.781,5.079,1.563,19.927,-53.529,-28.132,58.608,50.403,-14.066,-1.954,-75.018,59.780,-49.231,-46.496,58.608
'[03:01:42.465 07/11/2076]',-80.488,-32.039,86.349,23.443,-12.112,-17.973,64.469,-37.118,4.689,0.391,-1.954,28.132,-60.171,41.416,5.079,46.105,-18.364,9.768,-85.568,60.171,-42.979,10.159,5.079
'[03:01:42.469 07/11/2076]',-80.879,-24.615,84.396,37.900,-8.987,-24.615,67.595,-16.410,12.112,-9.377,-10.549,34.383,-51.966,35.556,-2.344,44.933,-25.006,12.894,-83.614,42.979,-15.629,1.172,-2.344
'[03:01:42.473 07/11/2076]',-87.131,-16.801,90.647,33.993,-14.457,-29.695,78.926,-12.503,3.907,18.364,-9.768,30.476,-35.556,4.298,25.006,49.231,-31.258,46.496,-89.866,39.853,-11.331,-11.331,25.006
'[03:01:42.477 07/11/2076]',-94.945,-14.847,93.382,39.463,-23.443,-41.807,84.396,3.907,-17.973,15.629,8.596,25.397,32.039,-4.298,-42.589,47.668,-39.072,54.310,-92.601,49.621,3.907,27.741,-42.589
'[03:01:42.480 07/11/2076]',-98.071,-16.020,97.680,39.463,-26.960,-51.966,84.005,18.364,-8.596,-0.391,-20.708,35.556,21.099,-16.410,-46.105,46.496,-50.012,53.919,-96.899,44.542,23.443,10.159,-46.105
'[03:01:42.484 07/11/2076]',-103.541,-10.940,95.726,28.523,-35.165,-56.264,80.098,20.708,-15.238,-9.768,-17.192,41.416,2.735,-64.469,12.894,46.886,-63.687,72.283,-94.945,28.523,32.039,-37.900,12.894
'[03:01:42.488 07/11/2076]',-104.322,0.391,75.018,23.834,-39.463,-59.389,71.893,21.880,-12.894,-35.556,-17.582,36.728,-40.244,22.662,-53.919,40.244,-78.535,64.078,-74.237,17.582,42.589,2.735,-53.919
'[03:01:42.492 07/11/2076]',-101.978,4.298,64.469,20.708,-39.853,-62.125,64.860,25.006,0.781,-65.250,-30.476,32.039,-19.536,26.178,-103.541,33.211,-87.912,46.886,-63.687,17.973,53.138,22.271,-103.541
'[03:01:42.496 07/11/2076]',-105.104,-10.159,70.330,18.755,-48.059,-63.687,57.045,28.523,-8.987,-50.012,-35.556,26.960,4.689,-63.687,-44.933,35.556,-94.164,56.264,-69.548,30.476,54.701,-33.602,-44.933
'[03:01:42.500 07/11/2076]',-112.137,-8.987,62.125,6.642,-56.654,-65.641,51.575,18.755,-8.596,-62.125,-31.648,28.132,-4.689,-9.768,-94.945,35.165,-104.713,66.032,-61.343,32.821,62.125,8.205,-94.945
'[03:01:42.504 07/11/2076]',-119.560,-17.192,55.873,3.516,-66.422,-75.409,43.370,20.708,-21.099,-82.051,-41.026,35.556,53.919,-103.541,-88.303,28.913,-113.700,54.701,-55.092,29.695,91.429,-27.350,-88.303
'[03:01:42.508 07/11/2076]',-121.123,-46.496,92.210,-15.629,-69.939,-76.972,43.370,11.331,-29.304,-58.608,-31.258,32.430,54.701,-112.918,-63.297,33.993,-108.230,75.018,-91.429,66.422,91.429,-41.026,-63.297
'[03:01:42.512 07/11/2076]',-116.044,-4.298,20.708,-11.722,-72.283,-82.051,32.430,9.768,-15.238,-91.429,-22.271,16.020,-10.940,-62.125,-71.893,31.648,-111.355,57.827,-19.927,7.424,109.011,-58.217,-71.893
'[03:01:42.516 07/11/2076]',-121.123,-7.424,17.973,-15.629,-74.237,-85.177,25.006,7.033,-3.907,-71.502,-72.674,30.867,-23.834,-35.165,-93.773,35.165,-112.918,57.045,-17.192,30.476,73.846,-17.582,-93.773
'[03:01:42.520 07/11/2076]',-127.375,-12.112,10.159,-8.596,-82.442,-86.349,16.410,12.112,-5.470,-66.032,-106.276,46.105,-16.020,-67.985,-82.833,35.556,-112.527,50.403,-9.377,24.615,79.316,-26.178,-82.833
'[03:01:42.523 07/11/2076]',-121.123,-8.596,0.781,-13.284,-85.177,-78.535,16.020,4.298,-19.145,-57.827,-76.972,25.788,20.317,-138.706,-39.853,28.913,-101.197,50.012,0.000,31.258,80.488,-77.363,-39.853
'[03:01:42.527 07/11/2076]',-123.468,-22.271,15.629,-16.410,-92.601,-74.628,17.973,0.781,-23.053,-71.893,-55.873,5.470,53.138,-146.129,-73.065,20.708,-100.024,41.416,-14.847,34.774,92.601,-47.277,-73.065
'[03:01:42.531 07/11/2076]',-124.249,-33.211,23.053,-6.642,-101.197,-70.720,16.020,12.503,-64.469,-55.092,-46.496,19.536,88.303,-193.016,-60.171,17.192,-90.256,43.370,-22.271,41.416,116.825,-78.535,-60.171
'[03:01:42.535 07/11/2076]',-122.686,-26.960,24.225,-2.344,-101.587,-62.515,21.490,12.894,-44.151,-62.906,-41.416,22.271,57.827,-160.195,-39.463,14.457,-78.535,53.138,-23.443,48.059,90.256,-62.125,-39.463
'[03:01:42.539 07/11/2076]',-127.375,-19.927,24.615,10.159,-105.885,-58.217,29.695,20.708,-20.708,-68.767,-43.761,3.516,-14.066,-52.357,-73.846,10.159,-69.548,44.933,-23.834,43.761,78.535,-6.252,-73.846
'[03:01:42.543 07/11/2076]',-126.593,-18.364,26.960,22.662,-107.448,-53.529,35.556,28.913,-37.509,-62.906,-35.165,7.033,-25.006,-25.006,-78.144,0.000,-57.827,38.291,-26.178,53.138,83.614,-9.377,-78.144
'[03:01:42.547 07/11/2076]',-117.607,-13.284,31.648,26.960,-103.541,-36.728,41.416,26.178,-35.556,-42.589,-19.927,1.954,2.735,-74.628,-18.755,-5.470,-41.026,46.105,-30.867,63.297,59.780,-42.979,-18.755
'[03:01:42.551 07/11/2076]',-105.104,-5.861,33.993,19.145,-96.117,-24.225,46.105,15.629,-41.807,-50.403,10.940,-16.410,-4.298,26.178,-98.462,-21.490,-34.383,33.993,-33.211,53.919,68.376,26.178,-98.462
'[03:01:42.555 07/11/2076]',-102.369,-5.079,28.913,30.085,-94.945,-23.834,42.979,26.960,-66.032,-41.026,18.755,-8.205,2.344,-20.317,-54.310,-24.225,-31.648,26.569,-28.132,46.105,59.389,-13.284,-54.310
'[03:01:42.559 07/11/2076]',-90.647,-3.516,32.430,37.900,-83.614,-14.847,47.277,26.569,-51.966,0.391,13.284,2.344,-45.714,-23.443,46.105,-11.722,-14.847,58.999,-31.648,58.608,17.192,-59.780,46.105
'[03:01:42.563 07/11/2076]',-79.707,-2.344,38.681,38.291,-71.893,-11.722,53.529,24.615,-41.026,-12.112,25.397,-12.503,-30.476,51.184,-43.370,-17.192,-10.940,43.370,-37.900,34.774,30.476,30.476,-43.370
'[03:01:42.566 07/11/2076]',-79.707,-2.735,36.728,49.621,-66.422,-14.457,53.138,31.648,-46.496,1.954,15.238,1.563,-48.840,-9.377,37.509,-7.424,-8.987,42.198,-35.946,44.933,10.940,-46.496,37.509
'[03:01:42.570 07/11/2076]',-66.813,7.033,41.416,41.026,-47.668,-5.861,58.217,19.145,-43.370,18.755,13.284,12.503,-13.284,-7.424,36.728,-14.066,0.391,50.794,-40.635,33.602,21.099,-35.946,36.728
'[03:01:42.574 07/11/2076]',-52.357,11.722,45.714,36.337,-34.383,0.391,61.734,13.675,-60.952,30.085,50.012,-2.735,52.357,-19.145,-1.954,-14.847,13.675,35.556,-44.933,30.085,28.523,-17.582,-1.954
'[03:01:42.578 07/11/2076]',-42.198,12.112,45.324,37.118,-19.145,2.735,60.952,7.033,-55.873,50.012,53.138,-14.457,-8.205,51.575,1.563,-12.503,22.271,30.085,-44.542,17.973,41.416,-23.443,1.563
'[03:01:42.582 07/11/2076]',-38.681,19.536,45.714,35.946,-2.735,6.252,57.436,1.563,-45.714,46.105,40.244,4.689,25.397,40.244,-8.205,-10.940,25.006,30.085,-44.933,21.099,19.536,7.033,-8.205
'[03:01:42.586 07/11/2076]',-34.774,17.582,43.761,34.774,7.814,8.205,52.747,-7.814,-11.722,46.886,16.801,19.927,-36.337,96.117,10.549,1.954,26.569,37.118,-42.979,20.317,-4.298,17.973,10.549
'[03:01:42.590 07/11/2076]',-26.960,18.364,42.589,26.178,21.490,9.377,53.919,-24.615,0.391,37.900,23.053,2.735,-55.873,121.905,-6.642,4.298,24.615,28.132,-41.807,27.741,-5.470,23.053,-6.642
'[03:01:42.594 07/11/2076]',-25.006,17.973,44.151,23.834,28.132,8.987,56.264,-32.430,15.238,15.629,30.867,-5.470,-24.225,92.210,-18.364,7.033,22.271,24.225,-43.370,29.304,-8.596,37.900,-18.364
'[03:01:42.598 07/11/2076]',-23.443,21.880,42.589,26.178,29.304,12.503,57.827,-32.430,10.940,22.271,28.523,10.940,14.847,55.873,-6.252,8.205,26.178,36.337,-41.807,26.960,-5.470,36.337,-6.252
'[03:01:42.602 07/11/2076]',-27.350,29.304,40.244,29.695,27.741,14.847,60.952,-32.039,15.238,48.449,0.391,25.006,-36.728,117.216,-4.298,13.675,31.258,50.012,-39.463,8.987,3.126,60.952,-4.298
'[03:01:42.605 07/11/2076]',-32.821,33.602,42.198,30.476,26.178,17.192,65.641,-35.556,23.053,41.416,15.629,9.377,-9.377,169.182,-78.144,8.596,30.867,53.138,-41.416,3.126,15.238,147.302,-78.144
'[03:01:42.609 07/11/2076]',-34.774,36.337,35.556,35.556,23.834,22.662,59.780,-33.602,33.211,32.039,18.755,10.549,4.298,67.595,16.801,6.642,29.304,62.515,-34.774,9.377,0.000,73.065,16.801
'[03:01:42.613 07/11/2076]',-24.615,41.807,33.993,16.020,32.039,30.867,56.654,-52.357,51.575,11.722,32.430,-3.907,-56.654,169.182,-17.973,-1.172,24.225,66.032,-33.211,17.582,2.735,97.289,-17.973
'[03:01:42.617 07/11/2076]',-25.788,41.026,33.602,7.424,29.304,31.258,53.919,-57.827,46.496,3.907,39.853,-12.112,-34.383,123.858,-3.516,-6.252,13.675,70.330,-32.821,15.238,8.596,82.833,-3.516
'[03:01:42.621 07/11/2076]',-28.132,43.761,31.648,4.689,25.788,28.913,51.575,-55.482,37.900,-13.675,42.589,-7.033,-14.066,78.535,13.284,-17.192,6.642,70.330,-30.867,13.675,25.788,48.059,13.284
'[03:01:42.625 07/11/2076]',-29.304,41.416,33.993,-1.172,18.755,26.569,54.310,-55.873,19.145,1.954,38.291,-0.781,-1.563,23.443,44.933,-7.424,7.814,85.958,-33.211,20.708,19.536,17.582,44.933
'[03:01:42.629 07/11/2076]',-34.774,39.072,35.556,-1.563,12.112,20.317,57.827,-52.747,3.126,-18.364,58.217,-12.503,30.867,21.099,-7.424,-14.066,1.954,76.581,-34.774,21.490,38.681,44.151,-7.424
'[03:01:42.633 07/11/2076]',-46.886,40.244,29.695,1.954,4.298,14.066,55.873,-49.621,1.954,-24.225,44.151,-0.781,0.391,26.178,2.344,-7.814,-7.033,82.051,-28.913,11.722,37.509,42.979,2.344
'[03:01:42.637 07/11/2076]',-54.701,44.542,14.457,0.000,0.391,7.814,50.012,-53.919,-17.973,-41.807,39.853,10.549,1.563,-4.298,-3.126,-2.735,-17.192,70.330,-13.675,8.596,34.383,30.867,-3.126
'[03:01:42.641 07/11/2076]',-57.827,40.635,10.940,2.344,2.344,3.126,48.840,-58.999,-10.549,-40.635,43.370,-10.159,-39.463,44.151,-26.178,2.344,-15.238,53.138,-10.159,15.629,29.695,46.496,-26.178
'[03:01:42.645 07/11/2076]',-63.297,32.039,1.172,5.861,-0.391,-2.735,43.761,-64.078,-36.337,-28.913,58.217,-29.304,-49.231,-11.722,23.443,1.172,-15.629,37.509,-0.391,25.788,19.145,-6.252,23.443
'[03:01:42.648 07/11/2076]',-72.674,24.225,-8.596,5.470,-5.861,-8.205,33.602,-71.893,-50.403,-49.231,43.761,-20.708,-21.880,-41.026,-19.145,4.298,-24.225,19.145,9.377,27.350,11.331,25.788,-19.145
'[03:01:42.652 07/11/2076]',-80.488,16.020,-17.582,9.768,-10.940,-15.629,27.741,-73.455,-55.092,-64.469,28.913,-11.722,-80.879,12.894,-35.556,0.391,-32.039,5.470,18.364,22.271,15.629,40.635,-35.556
'[03:01:42.656 07/11/2076]',-86.349,9.768,-25.397,12.894,-19.536,-23.053,29.695,-75.018,-73.846,-79.316,60.171,-21.490,-75.409,-10.940,-16.020,-11.331,-39.072,3.516,26.178,27.350,12.112,25.006,-16.020
'[03:01:42.660 07/11/2076]',-93.382,5.079,-33.993,19.145,-28.913,-32.821,33.602,-74.237,-75.018,-90.647,62.125,-18.364,-137.143,37.118,-10.159,-11.722,-49.231,12.894,34.774,29.304,1.954,32.039,-10.159
'[03:01:42.664 07/11/2076]',-92.991,6.252,-37.900,25.397,-27.741,-37.509,38.291,-71.893,-64.469,-79.316,35.165,5.079,-168.791,24.615,56.264,-15.238,-51.575,26.569,38.681,24.615,-0.781,-9.768,56.264
'[03:01:42.668 07/11/2076]',-91.038,4.298,-42.589,29.695,-25.006,-42.589,42.198,-73.065,-84.786,-66.813,51.184,-4.689,-115.653,-7.033,40.635,-23.443,-51.184,21.880,43.370,19.927,20.317,-7.814,40.635
'[03:01:42.672 07/11/2076]',-89.084,6.252,-48.449,24.615,-20.317,-43.370,42.979,-84.786,-81.661,-73.455,57.436,-21.099,-134.408,-5.861,48.059,-27.350,-57.045,14.066,49.231,21.490,8.596,-11.331,48.059
'[03:01:42.676 07/11/2076]',-84.396,5.470,-57.045,24.615,-17.192,-41.026,38.681,-91.429,-75.409,-85.177,54.701,-35.165,-122.686,11.331,0.391,-29.695,-61.734,-9.768,57.827,11.722,8.596,23.053,0.391
'[03:01:42.680 07/11/2076]',-86.740,3.907,-62.906,40.244,-19.927,-39.853,37.509,-82.442,-110.183,-82.833,76.190,-51.966,-53.529,-78.535,-5.470,-30.867,-63.297,-32.430,63.687,7.033,16.410,14.847,-5.470
'[03:01:42.684 07/11/2076]',-83.223,12.112,-58.217,28.913,-16.410,-29.304,42.589,-96.899,-68.376,-89.475,73.455,-52.357,-170.354,-4.298,57.045,-17.973,-62.906,-15.629,58.999,28.523,-44.151,-1.172,57.045
'[03:01:42.688 07/11/2076]',-85.958,16.801,-54.310,30.867,-19.927,-23.834,49.621,-97.289,-54.310,-81.270,51.966,-46.105,-187.155,33.993,35.556,-13.284,-60.952,-14.847,55.092,25.788,-53.138,32.430,35.556
'[03:01:42.691 07/11/2076]',-82.442,12.894,-51.966,44.933,-21.490,-20.317,55.873,-89.475,-66.813,-70.720,66.422,-56.264,-137.143,-32.821,53.138,-11.331,-52.747,-24.615,52.747,35.165,-30.476,-18.755,53.138
'[03:01:42.695 07/11/2076]',-71.502,16.020,-44.542,40.635,-13.284,-12.112,64.469,-98.071,-41.416,-60.171,75.018,-70.330,-148.864,-35.165,97.289,-10.159,-47.277,-10.940,45.324,37.900,-42.589,-39.072,97.289
'[03:01:42.699 07/11/2076]',-73.455,16.410,-49.231,49.231,-14.847,-12.503,63.687,-92.210,-41.807,-65.250,56.654,-59.780,-144.567,-51.184,94.945,-10.159,-55.482,-11.331,50.012,31.258,-35.165,-36.337,94.945
'[03:01:42.703 07/11/2076]',-76.972,14.457,-44.542,57.827,-16.020,-14.066,66.422,-85.568,-35.556,-48.449,33.993,-51.575,-89.866,-115.263,113.700,-9.768,-59.389,-5.470,45.324,19.145,-8.987,-51.575,113.700
'[03:01:42.707 07/11/2076]',-69.939,13.284,-39.463,60.171,-9.768,-12.503,73.065,-85.958,-14.457,-50.403,43.761,-68.767,-128.547,-92.601,143.394,-11.331,-57.045,1.563,40.244,30.867,-10.940,-71.111,143.394
'[03:01:42.711 07/11/2076]',-62.906,11.331,-30.867,60.952,-4.298,-10.159,79.316,-85.958,4.689,-42.198,46.886,-89.475,-128.547,-3.907,75.018,-22.271,-55.873,2.344,31.648,41.807,-19.536,12.503,75.018
'[03:01:42.715 07/11/2076]',-64.860,5.861,-27.741,82.833,-5.079,-12.503,78.535,-64.860,8.987,-58.217,32.430,-72.283,-96.117,-83.614,116.435,-24.615,-61.734,0.781,28.523,38.681,-3.516,-26.569,116.435
'[03:01:42.719 07/11/2076]',-51.966,10.549,-19.536,81.270,7.424,-8.205,84.786,-63.297,15.629,-49.621,27.741,-60.562,-59.389,-87.131,108.230,-28.523,-57.045,16.410,20.317,35.556,15.238,-19.927,108.230
'[03:01:42.723 07/11/2076]',-42.198,12.503,-12.112,79.316,13.284,-7.424,91.038,-59.780,15.238,-56.654,40.244,-65.641,-22.662,-71.502,58.608,-30.476,-58.608,22.271,12.894,37.118,30.867,13.284,58.608
'[03:01:42.727 07/11/2076]',-43.370,8.596,-3.126,91.038,12.503,-10.549,96.117,-44.151,-1.172,-63.297,52.357,-61.734,64.860,-169.182,57.827,-27.741,-61.343,27.741,3.907,33.602,82.442,-22.662,57.827
'[03:01:42.730 07/11/2076]',-35.165,9.768,5.861,84.005,21.880,-8.205,100.024,-48.840,33.993,-75.018,27.741,-49.231,17.582,-66.032,11.722,-26.569,-58.217,32.039,-5.079,30.085,101.197,13.284,11.722
'[03:01:42.734 07/11/2076]',-28.913,7.033,5.861,80.098,27.741,-4.689,95.336,-53.529,31.258,-86.740,32.821,-60.562,52.747,-28.132,-73.065,-35.165,-57.827,13.675,-5.079,35.556,137.143,51.966,-73.065
'[03:01:42.738 07/11/2076]',-30.085,3.907,5.470,87.131,31.258,-2.344,86.740,-48.840,46.105,-95.336,23.053,-58.608,30.085,-51.184,-25.788,-37.900,-58.608,3.516,-4.689,34.774,146.520,8.987,-25.788
'[03:01:42.742 07/11/2076]',-17.582,4.298,3.126,75.409,42.198,1.954,81.270,-60.171,52.357,-83.614,14.066,-50.403,53.919,-108.230,15.629,-30.085,-55.873,12.503,-2.344,42.198,128.938,-24.225,15.629
'[03:01:42.746 07/11/2076]',-10.159,0.781,-1.563,65.250,46.886,1.563,74.628,-68.376,33.993,-70.330,22.271,-59.780,123.468,-144.957,-21.880,-30.476,-57.827,7.814,2.344,51.966,161.758,-42.979,-21.880
'[03:01:42.750 07/11/2076]',-10.159,0.391,-5.079,57.827,47.277,-0.391,66.032,-70.720,43.761,-72.674,5.470,-41.026,104.322,-136.752,-14.457,-16.801,-69.548,21.099,5.861,47.277,140.659,-30.476,-14.457
'[03:01:42.754 07/11/2076]',-8.205,6.642,-8.205,42.979,51.575,-1.172,60.562,-77.363,44.542,-79.316,-18.364,-24.225,74.237,-73.455,-64.860,-11.722,-77.363,22.271,8.987,42.589,147.302,-2.735,-64.860
'[03:01:42.758 07/11/2076]',-0.391,-3.516,-16.020,45.324,49.621,-5.470,52.747,-71.893,30.085,-96.117,-3.516,-31.648,104.322,-17.192,-175.433,-12.503,-78.926,0.391,16.801,56.654,160.195,54.310,-175.433
'[03:01:42.762 07/11/2076]',0.391,-9.768,-23.834,52.747,45.324,-5.861,43.761,-63.687,22.662,-114.872,-1.172,-38.291,123.077,-124.249,-121.905,-7.424,-82.051,-12.503,24.615,62.906,150.818,-8.987,-121.905
'[03:01:42.766 07/11/2076]',2.735,-3.907,-28.523,38.681,44.542,-0.781,39.853,-75.018,17.192,-102.369,-17.192,-17.582,117.998,-84.396,-152.772,-2.344,-79.316,-4.298,29.304,56.654,159.023,11.331,-152.772
'[03:01:42.770 07/11/2076]',3.126,-3.516,-35.556,40.244,38.291,1.172,35.556,-71.502,-3.907,-91.429,-25.397,-1.954,201.221,-209.035,-114.872,-1.563,-78.535,-4.298,36.337,51.184,156.288,-21.880,-114.872
'[03:01:42.773 07/11/2076]',10.159,-0.391,-34.383,26.960,38.681,7.033,37.900,-82.833,9.768,-109.011,-4.689,-19.927,158.242,-194.188,-90.647,0.781,-71.502,-6.252,35.165,62.125,137.143,-47.277,-90.647
'[03:01:42.777 07/11/2076]',18.755,4.689,-30.085,17.582,41.807,12.894,43.370,-87.912,25.397,-84.786,-7.424,-39.463,78.926,-118.779,-65.250,-0.391,-63.687,-3.907,30.867,64.469,120.342,-59.389,-65.250
'[03:01:42.781 07/11/2076]',22.271,5.079,-26.178,17.582,38.291,12.894,47.668,-81.270,22.271,-96.508,-7.814,-25.397,56.654,-107.057,-52.357,-5.079,-62.515,1.954,26.960,62.125,104.713,-48.840,-52.357
'[03:01:42.785 07/11/2076]',24.615,0.000,-22.662,21.099,32.821,10.159,52.747,-73.846,19.145,-92.601,-11.331,-25.397,58.217,-109.402,-52.357,-7.033,-56.264,6.252,23.443,58.999,113.309,-51.184,-52.357
'[03:01:42.789 07/11/2076]',23.443,-0.781,-14.847,21.490,26.960,5.861,63.687,-68.767,10.940,-68.376,-1.954,-41.026,69.158,-120.342,-36.728,-11.722,-46.496,12.503,15.629,58.217,116.825,-54.701,-36.728
'[03:01:42.793 07/11/2076]',26.569,2.344,-10.940,22.271,23.443,4.689,73.065,-61.343,-3.907,-45.714,7.033,-31.258,101.978,-140.659,-18.755,-17.192,-37.509,35.556,11.722,58.999,102.759,-43.370,-18.755
'[03:01:42.797 07/11/2076]',31.258,1.954,-7.814,27.741,20.317,6.252,76.972,-51.575,-0.391,-46.105,12.112,-39.463,134.408,-176.996,-2.735,-27.741,-30.476,32.821,8.596,62.906,94.554,-54.701,-2.735
'[03:01:42.801 07/11/2076]',37.509,0.391,-5.861,28.132,19.145,8.596,79.707,-48.449,8.987,-44.542,15.238,-56.264,73.065,-116.825,4.689,-36.728,-27.350,23.443,6.642,64.860,66.032,-39.853,4.689
'[03:01:42.805 07/11/2076]',44.933,2.344,-4.689,23.443,18.364,8.205,83.614,-44.933,-1.563,-42.979,24.615,-58.999,72.674,-62.515,-38.291,-50.403,-25.006,16.410,5.470,67.204,61.343,-4.689,-38.291
'[03:01:42.809 07/11/2076]',51.184,-5.861,-4.298,35.556,16.020,3.126,86.740,-30.085,-3.126,-56.264,33.602,-67.595,67.985,-82.442,-26.178,-53.138,-21.099,3.126,5.079,66.032,71.111,-37.900,-26.178
'[03:01:42.813 07/11/2076]',50.012,-12.112,5.079,37.118,11.331,0.391,94.945,-25.788,-17.973,-33.211,48.840,-80.879,112.527,-87.521,-51.184,-56.264,-13.284,5.470,-4.298,66.422,73.455,-5.079,-51.184
'[03:01:42.816 07/11/2076]',45.714,-5.861,10.940,41.026,8.596,-1.172,101.978,-17.192,-30.476,-26.178,64.469,-72.283,120.342,-82.833,-36.728,-65.250,-9.768,23.443,-10.159,84.005,64.469,-12.112,-36.728
'[03:01:42.820 07/11/2076]',37.509,-1.563,11.722,55.092,3.516,-2.735,107.057,-3.126,-35.165,0.391,50.403,-57.436,128.547,-116.825,10.159,-63.297,-7.814,45.324,-10.940,78.144,60.171,-30.867,10.159
'[03:01:42.824 07/11/2076]',32.039,-1.563,19.145,66.813,0.391,-2.344,113.700,5.861,-21.880,-0.391,55.092,-70.720,92.991,-142.613,73.455,-62.515,-3.907,47.277,-18.364,86.349,44.542,-75.800,73.455
'[03:01:42.828 07/11/2076]',37.118,2.344,23.053,68.767,0.391,5.079,121.514,3.907,-29.304,8.596,79.316,-86.740,79.707,-89.866,53.919,-71.111,4.689,51.184,-22.271,84.786,60.171,-62.906,53.919
'[03:01:42.832 07/11/2076]',30.476,3.516,19.927,78.144,-5.079,10.549,119.170,7.814,-38.291,6.252,73.455,-73.455,83.223,-63.297,20.317,-73.065,5.861,47.277,-19.145,81.661,88.303,-52.357,20.317
'[03:01:42.836 07/11/2076]',28.132,6.642,24.225,79.707,-8.205,23.834,118.779,4.689,-30.085,10.940,60.562,-69.158,73.065,-1.954,-16.801,-81.661,12.503,40.635,-23.443,75.018,92.991,0.391,-16.801
'[03:01:42.840 07/11/2076]',28.913,7.814,19.536,82.442,-14.457,35.165,115.653,2.735,-50.794,21.099,80.879,-75.409,126.203,-58.999,-7.814,-82.833,21.099,39.463,-18.755,84.005,108.620,-31.258,-7.814
'[03:01:42.844 07/11/2076]',30.867,16.020,21.490,71.111,-16.410,48.449,116.044,-6.252,-40.244,30.085,75.018,-69.939,87.131,-9.768,-0.781,-80.488,28.913,48.840,-20.708,87.912,110.965,-43.761,-0.781
'[03:01:42.848 07/11/2076]',32.039,20.708,19.927,67.204,-19.536,58.217,111.746,-8.987,-41.416,34.383,51.966,-44.542,110.965,-0.781,-35.556,-73.065,37.509,49.231,-19.145,80.879,125.031,-27.741,-35.556
'[03:01:42.852 07/11/2076]',32.039,31.258,17.192,66.422,-19.536,65.641,108.230,-5.079,-35.556,40.244,20.317,-7.424,97.289,1.172,-29.695,-51.575,47.668,56.264,-16.410,62.125,130.110,-35.946,-29.695
'[03:01:42.855 07/11/2076]',34.383,34.774,25.006,57.436,-17.973,75.018,108.230,-11.331,-48.449,48.059,35.946,-6.252,134.017,12.894,-75.018,-41.416,56.654,57.436,-24.225,56.264,160.586,-25.788,-75.018
'[03:01:42.859 07/11/2076]',40.635,40.244,28.523,49.621,-10.940,87.521,103.541,-18.755,-32.430,34.774,39.072,-8.596,140.269,91.819,-166.056,-32.821,64.469,46.105,-27.741,58.999,162.149,38.681,-166.056
'[03:01:42.863 07/11/2076]',44.933,36.337,25.788,56.654,-5.470,94.945,88.694,-12.112,-30.476,53.529,17.582,-5.470,173.089,-30.476,-88.694,-17.582,64.469,41.026,-25.006,60.562,140.659,-26.178,-88.694
'[03:01:42.867 07/11/2076]',58.999,38.291,25.006,34.774,11.722,101.978,79.316,-34.383,10.549,40.244,7.424,-16.801,108.620,63.297,-114.090,-14.847,62.906,32.821,-24.225,57.436,143.785,-16.801,-114.090
'[03:01:42.871 07/11/2076]',66.032,39.072,19.536,26.569,23.443,102.759,67.985,-41.416,21.099,53.138,-14.847,-8.205,124.640,65.641,-125.031,-12.503,66.032,22.271,-18.755,49.231,150.818,-19.145,-125.031
'[03:01:42.875 07/11/2076]',79.707,36.337,16.801,25.788,40.244,102.759,58.608,-41.416,51.575,50.794,-28.523,2.344,134.408,3.907,-59.389,-1.172,73.065,27.350,-16.020,49.621,107.448,-38.681,-59.389
'[03:01:42.879 07/11/2076]',92.210,31.258,11.331,26.960,54.310,98.462,50.794,-40.244,64.860,34.774,-16.410,-1.172,123.077,34.774,-74.628,0.391,74.628,14.457,-10.549,44.542,108.230,-33.602,-74.628
'[03:01:42.883 07/11/2076]',96.899,35.946,13.675,16.410,63.297,99.243,48.449,-46.496,60.562,50.012,-9.377,18.364,178.950,-7.814,-56.654,6.252,73.455,36.337,-12.894,39.853,80.879,-12.894,-56.654
'[03:01:42.887 07/11/2076]',99.243,33.602,11.331,12.503,66.032,96.117,43.370,-47.668,63.297,46.496,-22.662,33.211,166.447,4.689,-61.343,11.331,66.813,40.635,-10.549,35.556,64.078,3.907,-61.343
'[03:01:42.891 07/11/2076]',99.634,29.304,13.284,6.252,64.860,91.429,46.496,-53.138,68.376,42.589,-8.596,16.410,110.965,75.800,-77.753,12.112,62.515,39.072,-12.503,37.118,46.496,26.569,-77.753
'[03:01:42.895 07/11/2076]',105.885,29.304,14.066,-7.424,66.422,91.429,48.059,-63.687,48.449,60.562,17.192,-2.344,152.772,70.720,-108.620,9.768,61.343,39.072,-13.284,25.397,75.409,21.490,-108.620
'[03:01:42.898 07/11/2076]',101.978,28.913,10.549,-2.344,63.297,93.773,43.370,-59.780,47.668,60.171,6.642,19.145,119.560,3.516,-3.907,16.020,57.045,55.482,-9.768,33.602,31.648,-42.979,-3.907
'[03:01:42.902 07/11/2076]',101.978,33.211,9.768,-9.768,64.860,97.680,40.244,-66.813,70.720,42.979,-3.126,26.960,51.184,89.475,-21.490,19.927,56.264,59.389,-8.987,29.304,-3.516,9.768,-21.490
'[03:01:42.906 07/11/2076]',99.243,30.867,9.768,-6.642,61.343,98.462,41.807,-67.204,51.966,69.548,23.053,13.284,83.223,44.933,1.563,28.913,60.562,66.813,-8.987,31.648,-7.424,-12.503,1.563
'[03:01:42.910 07/11/2076]',94.945,31.258,17.973,-8.987,58.999,100.415,49.231,-72.283,51.184,67.985,37.900,5.470,60.562,47.277,23.053,32.430,63.297,73.455,-17.192,34.774,-37.509,2.735,23.053
'[03:01:42.914 07/11/2076]',84.005,25.788,23.834,2.735,52.357,94.945,53.529,-63.297,63.687,85.177,1.954,17.192,-17.973,156.679,-11.331,42.589,64.860,69.939,-23.053,22.271,-54.310,68.376,-11.331
'[03:01:42.918 07/11/2076]',77.363,25.006,33.211,4.689,47.668,90.256,64.078,-60.562,43.370,110.965,18.364,8.596,8.205,117.216,5.470,50.794,72.283,73.065,-32.430,15.238,-55.092,57.827,5.470
'[03:01:42.922 07/11/2076]',76.972,30.476,41.807,4.689,50.012,98.462,69.939,-62.906,34.383,125.421,36.337,-0.781,11.331,26.960,107.839,50.012,77.753,75.018,-41.026,13.675,-73.065,-17.582,107.839
'[03:01:42.926 07/11/2076]',79.707,33.602,42.979,10.940,55.092,105.495,68.767,-60.171,43.370,124.640,36.728,-5.470,-15.238,33.602,130.891,50.794,83.223,60.171,-42.198,16.801,-92.601,-31.258,130.891
'[03:01:42.930 07/11/2076]',79.316,35.165,49.231,10.940,58.608,109.792,70.330,-61.734,36.728,128.547,60.952,-24.225,53.529,3.907,101.587,42.979,90.256,49.231,-48.449,17.973,-87.521,-4.689,101.587
'[03:01:42.934 07/11/2076]',73.846,36.728,54.701,12.503,59.780,110.574,69.939,-60.171,35.556,113.700,73.065,-31.648,21.880,45.714,88.694,34.383,87.131,41.026,-53.919,13.284,-81.661,8.596,88.694
'[03:01:42.938 07/11/2076]',64.469,39.463,56.264,16.410,60.562,104.713,67.985,-54.310,47.277,111.355,53.138,-27.350,-18.364,114.090,60.562,28.913,85.958,27.741,-55.482,3.516,-82.833,50.012,60.562
'[03:01:42.941 07/11/2076]',60.952,32.430,58.608,25.006,60.171,93.382,69.158,-44.151,40.244,105.104,64.078,-37.509,2.735,128.938,11.331,28.913,88.694,15.238,-57.827,9.768,-73.455,74.628,11.331
'[03:01:42.945 07/11/2076]',60.562,29.304,63.687,25.397,61.343,91.038,71.502,-43.761,26.569,127.766,77.753,-44.542,22.662,63.687,73.455,28.132,92.601,24.615,-62.906,12.894,-66.422,17.973,73.455
'[03:01:42.949 07/11/2076]',53.138,27.741,59.389,32.821,59.780,84.005,66.813,-36.337,46.105,96.117,58.999,-21.880,-42.589,72.674,117.607,33.211,83.614,16.020,-58.608,3.126,-57.436,-18.755,117.607
'[03:01:42.953 07/11/2076]',52.747,30.867,58.999,23.053,64.469,81.270,67.204,-44.151,50.012,95.336,44.542,0.781,-11.331,42.979,126.593,33.211,79.316,33.602,-58.217,-6.642,-46.886,-14.066,126.593
'[03:01:42.957 07/11/2076]',57.045,32.430,66.422,12.503,69.548,78.535,71.502,-48.840,66.422,98.071,41.026,-10.940,0.781,82.442,80.488,31.258,78.926,25.006,-65.641,-1.563,-37.509,16.020,80.488
'[03:01:42.961 07/11/2076]',53.529,30.085,61.343,10.940,67.204,68.767,67.595,-45.324,64.860,64.078,48.840,-14.066,39.463,16.801,76.581,30.476,66.032,17.973,-60.562,0.391,-21.490,-10.940,76.581
'[03:01:42.965 07/11/2076]',53.529,32.430,58.999,0.000,71.502,60.952,63.687,-49.231,88.303,57.436,2.344,4.298,41.807,56.264,16.801,37.118,52.747,10.159,-58.217,-2.735,-24.615,35.556,16.801
'[03:01:42.969 07/11/2076]',49.231,26.960,51.966,-4.298,64.860,46.105,60.952,-48.059,62.515,55.092,-6.642,20.317,142.613,24.615,-72.283,35.556,40.635,4.298,-51.184,0.000,2.735,77.363,-72.283
'[03:01:42.973 07/11/2076]',35.556,16.410,44.542,0.391,54.310,26.960,60.562,-43.761,73.065,9.768,-2.344,21.099,50.794,11.722,-1.172,41.416,20.317,7.033,-43.761,-1.172,16.801,-7.033,-1.172
'[03:01:42.977 07/11/2076]',36.728,15.629,43.370,-14.066,53.529,16.410,68.767,-56.264,86.740,2.735,-4.298,25.006,3.907,103.541,-43.370,46.105,11.331,26.178,-42.589,-2.344,26.960,22.662,-43.370
'[03:01:42.980 07/11/2076]',29.304,7.424,36.728,-14.847,43.761,1.954,71.502,-57.827,70.720,-3.126,-12.112,46.886,37.900,60.171,-37.509,42.589,1.172,44.151,-35.946,-6.642,50.012,7.033,-37.509
'[03:01:42.984 07/11/2076]',23.443,5.861,34.774,-18.364,37.118,1.172,73.065,-63.687,71.502,0.391,-10.940,45.324,27.741,53.138,-17.192,43.370,-3.907,59.389,-33.993,-5.079,45.324,-6.252,-17.192
'[03:01:42.988 07/11/2076]',22.662,5.470,26.569,-21.490,33.993,0.781,71.111,-71.893,71.111,-16.020,-8.596,38.681,35.556,79.316,-68.767,38.291,-12.112,51.184,-25.788,-0.781,38.681,33.602,-68.767
'[03:01:42.992 07/11/2076]',20.708,-1.172,18.364,-14.457,26.178,-0.781,68.376,-69.548,51.966,-17.973,-7.814,35.946,69.158,50.403,-89.475,30.867,-12.112,31.648,-17.582,5.470,25.006,47.277,-89.475
'[03:01:42.996 07/11/2076]',18.755,-7.814,16.410,-6.642,17.973,1.563,70.720,-68.767,35.556,-4.689,13.284,24.615,68.376,21.880,-51.575,30.867,-6.252,30.867,-15.629,15.629,9.768,17.582,-51.575
'[03:01:43.000 07/11/2076]',14.847,-6.252,17.582,-10.159,12.894,5.470,75.409,-78.144,52.747,-9.377,11.722,19.145,0.000,59.389,-16.410,31.648,-3.126,40.244,-16.801,14.066,-3.516,1.563,-16.410
'[03:01:43.004 07/11/2076]',11.331,-7.424,16.020,-10.549,4.298,7.424,81.270,-83.614,40.635,7.814,-1.172,21.099,-4.689,63.297,-17.973,29.695,5.861,37.509,-15.238,8.987,-12.503,17.973,-17.973
'[03:01:43.008 07/11/2076]',10.549,-11.722,24.225,-4.689,-4.298,14.066,92.601,-82.833,14.066,32.821,35.556,8.987,69.548,-11.722,10.549,24.225,23.834,43.761,-23.443,15.238,-0.781,-8.205,10.549
'[03:01:43.012 07/11/2076]',9.768,-13.284,29.695,2.344,-10.940,21.880,101.978,-82.833,17.192,30.867,53.138,-14.847,34.383,15.629,19.536,16.801,34.383,48.449,-28.913,22.662,-13.284,-0.781,19.536
'[03:01:43.016 07/11/2076]',5.470,-10.159,32.821,6.252,-17.582,26.569,108.230,-81.270,5.079,39.463,44.151,-5.861,32.039,38.291,-0.781,14.457,38.291,45.324,-32.039,12.112,-21.099,36.337,-0.781
'[03:01:43.020 07/11/2076]',1.954,-7.424,35.165,16.020,-21.880,30.867,113.309,-74.628,-10.549,61.734,40.635,5.470,59.780,18.755,9.768,8.205,43.370,56.654,-34.383,5.861,-18.364,38.681,9.768
'[03:01:43.023 07/11/2076]',9.377,-1.954,41.807,14.847,-16.020,41.807,120.733,-80.488,17.192,57.436,60.562,-15.238,-37.509,71.502,69.158,16.801,52.357,66.813,-41.026,13.284,-51.966,8.205,69.158
'[03:01:43.027 07/11/2076]',14.066,1.563,45.324,13.284,-12.112,46.496,126.593,-84.786,7.033,89.866,71.502,-35.556,-30.085,73.846,69.548,19.145,59.780,69.939,-44.542,14.457,-75.018,24.615,69.548
'[03:01:43.031 07/11/2076]',14.847,1.172,46.105,25.006,-8.205,47.277,126.984,-75.800,1.172,93.773,67.595,-23.834,-33.602,59.389,94.164,18.364,65.250,65.641,-45.324,6.252,-58.217,-3.907,94.164
'[03:01:43.035 07/11/2076]',20.708,6.642,53.919,24.225,0.781,51.966,132.454,-78.144,0.781,91.038,89.084,-21.880,-29.695,94.945,80.488,14.066,74.628,80.488,-53.138,3.516,-63.687,30.867,80.488
'[03:01:43.039 07/11/2076]',19.536,8.987,54.701,28.913,4.689,49.621,137.924,-77.753,-8.205,123.858,96.899,-35.165,-21.099,91.819,87.131,19.536,85.177,78.535,-53.919,-4.298,-62.906,38.681,87.131
'[03:01:43.043 07/11/2076]',21.490,12.112,56.264,33.211,12.503,49.231,141.441,-77.753,-9.768,132.845,98.462,-27.350,0.391,76.972,102.369,12.503,91.038,82.442,-55.482,-17.192,-35.556,24.225,102.369
'[03:01:43.047 07/11/2076]',36.728,19.145,54.701,29.695,30.085,58.999,141.441,-88.694,12.112,121.514,112.137,-36.728,19.536,116.435,71.111,1.172,97.289,91.819,-53.919,-13.284,-64.469,89.475,71.111
'[03:01:43.051 07/11/2076]',42.589,20.317,47.277,35.946,37.509,63.297,135.580,-87.912,17.973,147.692,104.713,-47.668,1.172,85.958,131.673,3.907,97.289,89.866,-46.496,-15.629,-81.661,48.840,131.673
'[03:01:43.055 07/11/2076]',51.184,26.178,41.026,28.913,50.012,65.641,132.845,-98.852,29.695,132.845,106.667,-47.277,-0.391,113.700,115.653,-4.689,94.164,92.601,-40.244,-19.536,-73.065,57.827,115.653
'[03:01:43.059 07/11/2076]',60.171,25.788,37.509,32.039,59.780,67.204,129.328,-98.462,36.337,119.170,116.435,-51.575,-24.615,133.236,123.077,-9.768,95.336,104.713,-36.728,-15.238,-76.972,55.482,123.077
'[03:01:43.063 07/11/2076]',61.734,25.006,30.867,39.072,62.906,65.250,126.984,-96.899,37.509,125.031,126.593,-63.687,-22.662,123.468,138.315,-12.112,96.508,107.057,-30.085,-15.238,-73.846,43.761,138.315
'[03:01:43.066 07/11/2076]',61.734,28.132,27.350,31.258,68.376,63.687,126.984,-108.230,33.211,120.733,127.375,-59.389,-1.954,119.951,125.421,-20.317,96.899,99.243,-26.569,-23.053,-32.430,34.774,125.421
'[03:01:43.070 07/11/2076]',62.906,32.430,19.927,29.695,73.065,60.562,125.421,-112.137,56.264,110.965,107.839,-56.264,-14.066,204.737,60.171,-30.867,96.899,94.164,-19.145,-28.132,-46.886,126.984,60.171
'[03:01:43.074 07/11/2076]',67.204,27.741,10.940,35.165,68.376,56.264,125.031,-106.276,33.211,108.620,128.547,-73.065,70.720,142.613,22.271,-37.509,100.806,101.978,-10.159,-17.192,-46.886,138.706,22.271
'[03:01:43.078 07/11/2076]',67.595,25.397,9.377,40.244,64.860,54.701,125.031,-99.634,25.006,103.932,144.176,-78.144,65.250,67.985,100.024,-36.337,103.541,107.448,-8.596,-12.894,-54.310,66.422,100.024
'[03:01:43.082 07/11/2076]',65.250,31.648,8.205,28.523,64.078,56.654,121.514,-105.495,40.244,80.488,126.203,-60.171,9.768,174.652,35.165,-31.648,94.945,98.852,-7.424,-16.020,-58.608,126.984,35.165
'[03:01:43.086 07/11/2076]',58.217,32.039,1.563,37.900,55.873,57.045,116.044,-96.899,17.973,103.932,109.011,-40.635,31.648,94.164,87.521,-21.490,91.429,96.899,-0.781,-22.662,-53.919,71.111,87.521
'[03:01:43.090 07/11/2076]',53.138,34.774,5.861,29.695,51.575,60.952,117.607,-104.713,21.099,89.475,128.156,-50.012,-32.039,141.050,97.680,-16.801,88.303,99.634,-5.079,-19.145,-48.449,51.966,97.680
'[03:01:43.094 07/11/2076]',53.529,33.993,7.033,19.927,48.449,60.562,118.779,-110.965,11.331,87.912,136.752,-57.045,-30.476,201.612,24.615,-14.847,84.396,95.726,-6.252,-16.020,-35.165,95.726,24.615
'[03:01:43.098 07/11/2076]',49.621,34.383,3.126,21.490,38.681,57.045,115.653,-100.415,-0.391,90.256,116.435,-41.026,-3.126,196.142,-12.894,-12.503,82.442,92.210,-2.344,-21.490,-34.383,123.077,-12.894
'[03:01:43.102 07/11/2076]',38.681,33.602,1.172,32.039,20.708,49.231,114.090,-75.800,-23.834,86.349,113.309,-12.112,-26.960,142.613,54.701,-6.252,82.833,94.945,-0.391,-29.695,-36.337,58.608,54.701
'[03:01:43.105 07/11/2076]',39.463,41.416,10.940,20.317,20.317,50.403,119.560,-75.800,-11.722,96.117,113.309,-21.099,-24.225,112.527,91.429,-1.954,85.177,96.508,-10.159,-33.211,-39.463,33.993,91.429
'[03:01:43.109 07/11/2076]',38.681,48.840,16.020,14.066,17.582,52.747,119.560,-69.939,-10.549,93.382,117.607,-26.569,-18.755,146.911,53.138,-7.033,84.396,95.726,-15.238,-31.648,-58.999,80.488,53.138
'[03:01:43.113 07/11/2076]',37.900,47.277,13.284,23.053,14.847,50.012,113.309,-54.310,-7.814,93.773,112.918,-32.430,-54.310,121.123,106.667,-7.424,79.707,93.773,-12.503,-23.443,-91.819,41.807,106.667
'[03:01:43.117 07/11/2076]',41.807,50.794,17.582,12.894,21.099,49.231,113.700,-58.217,-8.987,79.316,129.719,-46.105,-35.556,123.858,85.177,-17.582,75.018,92.210,-16.801,-17.582,-92.991,57.436,85.177
'[03:01:43.121 07/11/2076]',39.463,49.621,14.457,14.066,22.662,41.416,108.620,-51.575,-6.642,70.330,117.998,-41.026,-37.900,141.441,62.515,-23.443,66.813,87.131,-13.675,-18.364,-101.197,87.521,62.515
'[03:01:43.125 07/11/2076]',41.807,45.324,12.894,23.834,24.615,33.211,104.322,-36.337,-10.159,80.098,115.653,-42.589,-28.913,118.779,86.740,-33.602,67.595,92.210,-12.112,-13.675,-103.150,66.032,86.740
'[03:01:43.129 07/11/2076]',42.589,37.118,13.284,28.132,26.960,23.053,101.197,-28.523,-25.397,73.846,139.487,-49.621,16.020,76.581,80.879,-34.774,63.687,95.726,-12.503,-9.377,-104.322,69.939,80.879
'[03:01:43.133 07/11/2076]',36.337,34.383,14.457,27.741,31.648,13.675,95.336,-24.615,-18.364,80.879,119.951,-45.714,39.072,60.171,75.800,-37.900,53.138,85.177,-13.675,-17.582,-98.071,82.442,75.800
'[03:01:43.137 07/11/2076]',33.211,32.039,11.722,28.523,41.026,1.954,88.694,-23.443,14.847,70.330,90.647,-38.291,-78.535,187.937,69.939,-41.026,39.072,76.581,-10.940,-23.443,-124.249,123.858,69.939
'[03:01:43.141 07/11/2076]',30.867,19.927,5.079,39.463,45.324,-12.894,84.396,-17.192,24.225,37.900,98.071,-53.919,-37.118,125.812,54.701,-36.337,25.788,76.581,-4.298,-11.331,-125.421,114.872,54.701
'[03:01:43.145 07/11/2076]',31.258,14.066,3.907,39.853,56.264,-21.099,82.442,-24.615,53.919,44.542,87.521,-62.125,-101.978,89.866,163.321,-25.788,16.410,76.581,-3.126,-9.768,-132.454,28.523,163.321
'[03:01:43.148 07/11/2076]',33.602,14.847,-0.781,37.509,71.502,-22.271,75.409,-35.165,76.581,49.621,54.310,-44.933,-110.183,76.581,192.234,-21.099,6.252,71.893,1.563,-17.192,-135.189,21.490,192.234
'[03:01:43.152 07/11/2076]',37.118,11.331,-10.549,43.370,81.661,-26.569,66.422,-37.509,76.581,39.072,42.979,-31.648,-69.939,53.529,162.540,-16.801,-1.563,70.720,11.331,-17.973,-126.984,31.648,162.540
'[03:01:43.156 07/11/2076]',33.602,4.689,-10.940,46.105,88.303,-31.648,62.906,-42.979,76.581,39.072,46.496,-41.416,-46.496,34.383,144.176,-9.768,-7.814,64.078,11.722,-19.145,-99.243,26.569,144.176
'[03:01:43.160 07/11/2076]',31.258,0.391,-12.503,44.151,96.508,-38.681,59.389,-51.575,81.270,21.880,42.589,-44.933,-35.165,44.933,100.806,-7.814,-19.536,53.138,13.284,-20.708,-85.958,58.217,100.806
'[03:01:43.164 07/11/2076]',25.397,-7.814,-23.053,53.138,97.680,-51.184,51.575,-48.840,98.071,-19.927,14.847,-15.629,-53.529,89.084,37.900,3.516,-37.118,39.072,23.834,-25.006,-54.701,85.177,37.900
'[03:01:43.168 07/11/2076]',12.894,-21.099,-30.476,66.032,88.303,-64.078,50.403,-46.886,82.442,-12.503,-0.781,-9.768,-51.966,36.728,54.310,18.755,-49.621,32.430,31.258,-24.615,-36.728,63.297,54.310
'[03:01:43.172 07/11/2076]',17.192,-17.582,-34.383,48.449,98.462,-60.562,50.012,-73.455,97.680,-15.629,-8.596,-16.801,-50.794,6.252,76.972,22.271,-62.515,31.648,35.165,-23.053,-23.443,33.602,76.972
'[03:01:43.176 07/11/2076]',28.913,-15.629,-39.072,37.509,108.620,-53.138,46.496,-89.475,106.276,-19.145,-23.834,-12.503,-17.582,14.457,29.695,23.053,-71.893,34.383,39.853,-17.973,-7.814,57.436,29.695
'[03:01:43.180 07/11/2076]',29.304,-19.145,-44.542,36.337,105.495,-51.966,42.979,-92.991,96.508,-32.039,-19.145,-19.927,10.159,-15.238,7.424,21.490,-82.833,30.476,45.324,-8.596,23.053,35.556,7.424
'[03:01:43.184 07/11/2076]',31.648,-15.238,-45.324,17.973,106.276,-48.840,40.635,-107.839,104.322,-61.734,-25.397,-20.317,30.867,-21.490,-29.695,17.582,-97.680,17.973,46.105,-3.907,40.244,43.761,-29.695
'[03:01:43.188 07/11/2076]',26.178,-17.582,-48.059,10.159,98.462,-50.012,35.556,-111.355,117.998,-105.885,-42.979,-4.298,-15.629,49.231,-87.521,19.536,-111.355,8.205,48.840,-5.470,58.999,80.879,-87.521
'[03:01:43.191 07/11/2076]',21.490,-28.913,-53.138,15.238,82.833,-56.654,33.211,-103.150,105.104,-131.282,-34.774,-1.954,9.768,0.781,-98.462,24.615,-118.388,13.675,53.919,7.424,82.833,46.496,-98.462
'[03:01:43.195 07/11/2076]',16.801,-41.416,-55.482,16.410,67.204,-59.780,31.648,-100.806,81.661,-96.508,-42.589,-7.814,14.847,-73.455,-39.463,32.430,-118.779,14.847,56.264,21.490,88.303,-25.397,-39.463
'[03:01:43.199 07/11/2076]',15.629,-41.807,-54.310,1.954,62.906,-57.045,28.523,-110.965,87.131,-99.243,-62.906,6.642,36.728,-59.389,-77.753,31.648,-125.031,6.642,55.092,16.410,103.150,16.020,-77.753
'[03:01:43.203 07/11/2076]',7.814,-46.105,-60.562,3.516,50.012,-64.469,23.443,-102.759,74.237,-109.402,-73.455,25.006,70.720,-103.150,-77.363,25.788,-133.236,15.238,61.343,19.536,123.468,-2.344,-77.363
'[03:01:43.207 07/11/2076]',6.642,-53.919,-63.297,1.172,37.509,-71.502,23.053,-97.680,44.933,-96.117,-53.919,7.424,108.230,-107.839,-112.137,13.675,-131.673,3.126,64.078,36.728,146.129,-9.768,-112.137
'[03:01:43.211 07/11/2076]',8.596,-52.357,-63.687,-8.205,35.556,-75.018,21.099,-97.680,41.416,-135.971,-33.993,-10.549,95.726,-76.972,-157.070,-0.781,-141.441,1.563,64.469,45.324,145.348,19.536,-157.070
'[03:01:43.215 07/11/2076]',5.861,-56.264,-69.548,-9.768,26.178,-81.270,11.722,-86.740,37.900,-175.043,-43.370,-0.391,59.780,-9.768,-225.836,-5.470,-153.162,-6.642,70.330,53.138,136.752,62.906,-225.836
'[03:01:43.219 07/11/2076]',-1.563,-67.204,-73.455,3.516,14.847,-92.210,5.470,-66.422,25.788,-155.116,-75.800,10.549,53.529,-58.608,-178.168,-9.768,-158.242,-12.503,74.237,55.092,136.752,22.662,-178.168
'[03:01:43.223 07/11/2076]',-1.172,-69.158,-71.502,-3.516,13.675,-98.071,5.470,-67.595,28.523,-158.242,-73.065,0.391,57.045,-94.554,-157.070,-5.861,-162.149,-17.973,72.283,60.562,140.269,-3.516,-157.070
'[03:01:43.227 07/11/2076]',-9.768,-80.098,-71.893,0.781,5.861,-110.574,3.907,-60.171,29.304,-157.460,-79.707,1.563,63.687,-158.242,-112.137,1.954,-164.493,-21.880,72.674,65.641,137.924,-37.509,-112.137
'[03:01:43.230 07/11/2076]',-18.755,-89.084,-76.190,10.549,0.391,-122.295,-1.172,-48.449,21.490,-143.785,-105.885,12.112,84.396,-202.393,-98.071,1.172,-164.884,-30.085,76.972,65.641,155.116,-60.952,-98.071
'[03:01:43.234 07/11/2076]',-18.364,-87.131,-72.674,0.391,1.563,-123.077,-1.172,-53.919,6.642,-145.739,-90.256,0.391,101.978,-209.426,-110.574,-10.549,-162.540,-19.536,73.455,73.065,157.460,-57.436,-110.574
'[03:01:43.238 07/11/2076]',-20.708,-88.303,-81.270,1.563,0.391,-126.203,-10.549,-51.966,9.377,-154.725,-101.197,-13.284,-3.126,-113.700,-126.203,-15.238,-169.182,-39.463,82.051,82.051,125.031,-37.900,-126.203
'[03:01:43.242 07/11/2076]',-21.099,-92.601,-82.442,9.377,-1.563,-126.203,-13.675,-43.761,15.629,-160.977,-108.620,-15.238,-18.755,-93.773,-128.547,-25.788,-167.228,-43.761,83.223,86.740,115.263,-27.350,-128.547
'[03:01:43.246 07/11/2076]',-20.317,-96.508,-77.753,8.987,-3.907,-125.812,-11.722,-42.979,3.516,-177.387,-88.303,-29.304,28.132,-87.521,-189.499,-41.026,-170.745,-44.933,78.535,98.462,117.607,21.880,-189.499
'[03:01:43.250 07/11/2076]',-28.523,-97.289,-78.926,10.549,-12.503,-126.984,-13.675,-40.244,4.689,-195.360,-87.131,-25.397,-7.424,-98.852,-154.335,-40.244,-175.824,-56.654,79.707,93.382,122.295,-15.238,-154.335
'[03:01:43.254 07/11/2076]',-34.774,-89.866,-71.502,8.987,-14.457,-122.295,-9.768,-38.291,-0.391,-175.433,-99.243,-6.642,9.377,-176.996,-73.065,-39.853,-168.400,-47.668,72.283,80.879,113.700,-53.919,-73.065
'[03:01:43.258 07/11/2076]',-30.085,-86.349,-59.389,0.781,-16.410,-112.527,-0.781,-44.151,-16.801,-168.010,-77.753,-18.364,66.813,-216.068,-87.521,-44.542,-155.507,-42.198,60.171,89.866,109.402,-46.886,-87.521
'[03:01:43.262 07/11/2076]',-26.178,-82.833,-52.357,0.391,-18.755,-103.150,4.298,-42.589,-23.053,-161.368,-64.078,-39.072,15.629,-152.772,-103.932,-46.886,-145.348,-33.602,53.138,90.647,110.965,-48.449,-103.932
'[03:01:43.266 07/11/2076]',-30.476,-75.018,-50.794,7.424,-21.880,-96.117,5.079,-35.165,-20.317,-132.454,-88.694,-14.847,-12.894,-165.275,-47.277,-30.476,-139.878,-38.681,51.575,80.879,92.991,-74.628,-47.277
'[03:01:43.270 07/11/2076]',-28.523,-67.204,-41.807,3.907,-17.973,-86.349,11.331,-39.853,-13.284,-141.441,-94.164,-5.861,-1.954,-125.812,-92.210,-33.602,-138.706,-35.165,42.589,72.283,102.759,-23.443,-92.210
'[03:01:43.273 07/11/2076]',-25.397,-64.078,-40.635,5.079,-18.755,-80.879,14.847,-40.244,-19.536,-152.772,-65.250,-29.304,11.722,-69.548,-178.168,-30.867,-135.971,-20.708,41.416,79.316,109.792,26.569,-178.168
'[03:01:43.277 07/11/2076]',-18.364,-58.608,-39.463,10.940,-12.503,-75.409,18.755,-35.946,-17.973,-136.752,-45.324,-35.165,31.258,-155.507,-84.005,-26.178,-128.938,-10.940,40.244,75.800,96.508,-37.118,-84.005
'[03:01:43.281 07/11/2076]',-12.503,-51.966,-37.118,8.987,-8.205,-70.720,23.443,-36.337,-6.642,-139.487,-51.575,-21.880,40.244,-133.626,-98.071,-28.523,-121.123,-12.894,37.900,68.376,109.011,-20.317,-98.071
'[03:01:43.285 07/11/2076]',-8.596,-46.496,-35.556,7.033,-8.987,-66.032,28.132,-35.946,0.391,-119.170,-64.469,-14.457,29.304,-101.587,-101.587,-22.271,-110.965,-14.847,36.337,60.952,99.634,1.172,-101.587
'[03:01:43.289 07/11/2076]',-6.252,-42.979,-33.993,10.940,-12.503,-65.250,34.383,-28.913,-10.159,-96.899,-47.668,-23.053,44.933,-118.779,-86.740,-16.801,-98.071,-6.252,34.774,51.575,123.468,-27.741,-86.740
'[03:01:43.293 07/11/2076]',-6.252,-32.430,-30.867,3.126,-12.894,-60.952,38.681,-30.085,-13.284,-86.349,-44.542,-5.470,48.840,-126.593,-62.125,-9.768,-91.819,0.000,31.648,37.118,127.766,-30.867,-62.125
'[03:01:43.297 07/11/2076]',2.344,-23.053,-29.304,-4.298,-10.159,-49.231,38.291,-31.648,-28.132,-75.018,-39.463,-4.298,79.707,-105.495,-104.713,-16.020,-85.568,2.344,30.085,37.900,120.733,8.987,-104.713
'[03:01:43.301 07/11/2076]',10.549,-14.457,-29.695,-6.252,-6.642,-41.416,37.509,-28.913,-28.523,-83.614,-24.615,-11.331,71.502,-65.250,-134.408,-20.708,-85.177,7.033,30.476,39.853,105.495,37.900,-134.408
'[03:01:43.305 07/11/2076]',18.755,-4.689,-35.165,-12.894,-4.689,-37.509,35.556,-26.569,-42.198,-73.455,-24.615,3.907,130.501,-150.037,-93.773,-22.662,-84.396,10.549,35.946,33.993,117.998,-20.317,-93.773
'[03:01:43.309 07/11/2076]',26.569,2.344,-29.695,-26.178,-2.735,-29.695,38.681,-32.039,-7.814,-79.707,-39.072,4.689,45.324,-41.416,-106.667,-18.364,-77.753,20.708,30.476,35.556,103.541,0.391,-106.667
'[03:01:43.313 07/11/2076]',30.085,5.470,-30.867,-32.039,-6.252,-27.741,39.853,-32.039,-14.457,-69.939,-23.443,0.781,55.092,-30.867,-116.044,-15.238,-68.767,30.867,31.648,35.946,110.183,-7.814,-116.044
'[03:01:43.316 07/11/2076]',28.913,12.112,-28.132,-48.059,-9.768,-25.006,39.853,-38.291,-20.317,-41.416,-31.258,12.503,60.171,-23.834,-105.885,-10.940,-60.952,40.244,28.913,17.973,128.938,-17.582,-105.885
'[03:01:43.320 07/11/2076]',27.741,19.927,-30.085,-60.952,-10.549,-21.880,34.383,-43.370,-9.377,-51.184,-40.244,19.145,22.662,60.952,-147.302,-17.192,-55.873,34.774,30.867,5.861,141.832,16.410,-147.302
'[03:01:43.324 07/11/2076]',35.165,19.536,-32.430,-66.032,-12.894,-21.880,31.648,-39.463,-25.397,-19.927,-27.741,14.457,19.536,50.012,-116.044,-12.503,-42.979,35.946,33.211,14.847,97.680,11.722,-116.044
'[03:01:43.328 07/11/2076]',42.589,16.020,-42.589,-69.548,-14.847,-26.960,25.006,-34.383,-41.026,-7.814,-17.582,5.861,62.515,-10.940,-100.024,-11.722,-36.728,34.383,43.370,25.788,71.111,-13.675,-100.024
'[03:01:43.332 07/11/2076]',44.933,20.708,-53.138,-84.396,-16.410,-31.648,14.457,-35.946,-27.741,-26.178,-42.589,29.695,63.687,-19.927,-115.653,4.298,-41.807,33.211,53.919,17.582,35.556,10.159,-115.653
'[03:01:43.336 07/11/2076]',45.324,16.410,-69.939,-89.866,-22.662,-44.542,2.344,-30.867,-39.463,-29.695,-60.952,47.668,54.310,-34.383,-127.766,24.615,-45.714,21.880,70.720,8.596,0.391,16.410,-127.766
'[03:01:43.340 07/11/2076]',49.621,13.675,-74.237,-104.713,-22.662,-48.449,0.391,-41.807,-62.515,-17.192,-29.695,36.337,97.289,-98.071,-103.932,30.867,-38.291,20.317,75.018,10.159,-1.563,-26.960,-103.932
'[03:01:43.344 07/11/2076]',54.310,11.331,-76.581,-115.263,-19.927,-52.357,-1.172,-49.621,-40.635,-41.026,-14.066,26.960,51.184,-9.377,-148.864,36.337,-35.165,10.159,77.363,-9.377,0.391,9.377,-148.864
'[03:01:43.348 07/11/2076]',51.184,6.642,-73.065,-116.044,-24.225,-56.264,-1.954,-46.496,-46.886,-35.556,-23.443,37.509,22.662,7.033,-139.096,39.853,-30.085,4.298,73.846,-16.410,-3.126,-4.298,-139.096
'[03:01:43.352 07/11/2076]',42.589,3.126,-71.502,-107.448,-31.258,-56.654,-0.781,-41.807,-47.668,-11.722,-25.397,64.469,-6.252,-3.907,-57.827,46.886,-18.364,39.072,72.283,-6.642,-56.654,-17.582,-57.827
'[03:01:43.355 07/11/2076]',37.900,0.391,-71.502,-105.495,-35.165,-60.562,1.172,-41.807,-50.794,-19.145,-7.814,50.403,-0.391,5.470,-79.707,46.496,-13.284,27.741,72.283,-2.735,-71.893,6.252,-79.707
'[03:01:43.359 07/11/2076]',25.788,-0.781,-68.767,-96.899,-42.198,-58.217,0.391,-38.681,-46.886,0.391,-16.801,47.668,-34.774,-36.337,2.344,52.747,-7.814,19.536,69.548,2.344,-100.024,-46.886,2.344
